title:فاكهاني لا, start timestamp:1703490711.551449, stop timestamp:1703490722.342180, headset type:EPOCX, headset serial:E50206EF, headset firmware:720, channels:67, sampling rate:eeg_128;mot_32, samples:1383      , version:2.2, 
Timestamp,OriginalTimestamp,EEG.Counter,EEG.Interpolated,EEG.AF3,EEG.F7,EEG.F3,EEG.FC5,EEG.T7,EEG.P7,EEG.O1,EEG.O2,EEG.P8,EEG.T8,EEG.FC6,EEG.F4,EEG.F8,EEG.AF4,EEG.RawCq,EEG.Battery,EEG.BatteryPercent,MarkerIndex,MarkerType,MarkerValueInt,EEG.MarkerHardware,CQ.AF3,CQ.F7,CQ.F3,CQ.FC5,CQ.T7,CQ.P7,CQ.O1,CQ.O2,CQ.P8,CQ.T8,CQ.FC6,CQ.F4,CQ.F8,CQ.AF4,CQ.Overall,EQ.SampleRateQuality,EQ.OVERALL,EQ.AF3,EQ.F7,EQ.F3,EQ.FC5,EQ.T7,EQ.P7,EQ.O1,EQ.O2,EQ.P8,EQ.T8,EQ.FC6,EQ.F4,EQ.F8,EQ.AF4,MOT.CounterMems,MOT.InterpolatedMems,MOT.Q0,MOT.Q1,MOT.Q2,MOT.Q3,MOT.AccX,MOT.AccY,MOT.AccZ,MOT.MagX,MOT.MagY,MOT.MagZ
1703490711.551449,1703490711.551702,72.000000,0.000000,4255.769043,4199.743652,4285.384766,4279.743652,4250.384766,4285.000000,4167.820313,4252.179688,4235.256348,4227.051270,4463.717773,4436.025879,4340.256348,4357.820313,4291.000000,4.000000,89.000000,,,,0.000000,4.000000,4.000000,4.000000,4.000000,4.000000,4.000000,4.000000,4.000000,4.000000,4.000000,4.000000,4.000000,4.000000,4.000000,100.000000,,,,,,,,,,,,,,,,,18.000000,0.000000,0.693769,-0.072571,-0.691895,-0.186279,0.971310,0.142107,0.026859,-19.902113,-34.190285,64.048332
1703490711.559257,1703490711.559610,73.000000,0.000000,4245.769043,4187.051270,4280.384766,4273.589844,4240.897461,4282.948730,4167.692383,4256.153809,4233.974121,4223.077148,4453.589844,4431.410156,4329.743652,4350.000000,5459.000000,4.000000,89.000000,,,,0.000000,4.000000,4.000000,4.000000,4.000000,4.000000,4.000000,4.000000,4.000000,4.000000,4.000000,4.000000,4.000000,4.000000,4.000000,100.000000,,,,,,,,,,,,,,,,,,,,,,,,,,,,
1703490711.567065,1703490711.567418,74.000000,0.000000,4243.461426,4174.230957,4279.871582,4269.487305,4241.282227,4282.563965,4169.871582,4264.487305,4230.769043,4219.487305,4448.717773,4428.333496,4324.102539,4342.179688,6038.000000,4.000000,89.000000,,,,0.000000,4.000000,4.000000,4.000000,4.000000,4.000000,4.000000,4.000000,4.000000,4.000000,4.000000,4.000000,4.000000,4.000000,4.000000,100.000000,,,,,,,,,,,,,,,,,,,,,,,,,,,,
1703490711.574873,1703490711.575326,75.000000,0.000000,4248.717773,4166.538574,4276.794922,4268.461426,4244.102539,4279.230957,4170.641113,4262.692383,4224.230957,4210.512695,4444.871582,4428.846191,4324.615234,4341.922852,5676.000000,4.000000,89.000000,,,,0.000000,4.000000,4.000000,4.000000,4.000000,4.000000,4.000000,4.000000,4.000000,4.000000,4.000000,4.000000,4.000000,4.000000,4.000000,100.000000,,,,,,,,,,,,,,,,,,,,,,,,,,,,
1703490711.582681,1703490711.583134,76.000000,0.000000,4253.205078,4168.846191,4276.410156,4267.307617,4236.153809,4270.384766,4164.102539,4253.589844,4219.487305,4206.153809,4442.692383,4433.205078,4327.179688,4347.948730,5933.000000,4.000000,89.000000,,,,0.000000,4.000000,4.000000,4.000000,4.000000,4.000000,4.000000,4.000000,4.000000,4.000000,4.000000,4.000000,4.000000,4.000000,4.000000,100.000000,,,,,,,,,,,,,,,,,19.000000,0.000000,0.693785,-0.072571,-0.691895,-0.186218,0.986937,0.155781,0.036626,-19.845234,-34.004589,64.076836
1703490711.590489,1703490711.590942,77.000000,0.000000,4262.692383,4174.615234,4282.307617,4271.153809,4236.794922,4268.077148,4156.538574,4248.717773,4222.051270,4213.846191,4449.102539,4437.436035,4332.692383,4357.820313,3318.000000,4.000000,89.000000,,,,0.000000,4.000000,4.000000,4.000000,4.000000,4.000000,4.000000,4.000000,4.000000,4.000000,4.000000,4.000000,4.000000,4.000000,4.000000,100.000000,,,,,,,,,,,,,,,,,,,,,,,,,,,,
1703490711.598297,1703490711.598750,78.000000,0.000000,4267.179688,4175.512695,4282.692383,4275.897461,4243.333496,4262.820313,4152.820313,4249.358887,4218.589844,4215.512695,4455.512695,4435.512695,4339.230957,4361.282227,6038.000000,4.000000,89.000000,,,,0.000000,4.000000,4.000000,4.000000,4.000000,4.000000,4.000000,4.000000,4.000000,4.000000,4.000000,4.000000,4.000000,4.000000,4.000000,100.000000,,,,,,,,,,,,,,,,,,,,,,,,,,,,
1703490711.606105,1703490711.606458,79.000000,0.000000,4258.846191,4175.000000,4277.051270,4274.743652,4240.128418,4247.563965,4146.922852,4247.436035,4209.615234,4212.051270,4455.384766,4431.410156,4341.538574,4354.487305,5676.000000,4.000000,89.000000,,,,0.000000,4.000000,4.000000,4.000000,4.000000,4.000000,4.000000,4.000000,4.000000,4.000000,4.000000,4.000000,4.000000,4.000000,4.000000,100.000000,,,,,,,,,,,,,,,,,,,,,,,,,,,,
1703490711.613913,1703490711.614266,80.000000,0.000000,4249.871582,4176.410156,4273.077148,4268.077148,4235.897461,4245.000000,4142.179688,4243.846191,4212.051270,4216.538574,4455.897461,4430.128418,4336.153809,4344.743652,5933.000000,4.000000,89.000000,,,,0.000000,4.000000,4.000000,4.000000,4.000000,4.000000,4.000000,4.000000,4.000000,4.000000,4.000000,4.000000,4.000000,4.000000,4.000000,100.000000,,,,,,,,,,,,,,,,,20.000000,0.000000,0.693783,-0.072754,-0.691895,-0.186157,0.978147,0.148944,0.023440,-19.794044,-34.020798,64.102486
1703490711.621721,1703490711.621974,81.000000,0.000000,4252.307617,4176.794922,4271.282227,4262.692383,4242.051270,4262.307617,4149.102539,4245.769043,4223.589844,4222.820313,4457.820313,4430.897461,4335.512695,4345.128418,3318.000000,4.000000,89.000000,,,,0.000000,4.000000,4.000000,4.000000,4.000000,4.000000,4.000000,4.000000,4.000000,4.000000,4.000000,4.000000,4.000000,4.000000,4.000000,100.000000,,,,,,,,,,,,,,,,,,,,,,,,,,,,
1703490711.629529,1703490711.629782,82.000000,0.000000,4252.051270,4179.102539,4269.487305,4266.922852,4252.948730,4280.384766,4164.230957,4249.871582,4232.307617,4222.563965,4452.692383,4430.128418,4336.025879,4348.077148,6038.000000,4.000000,89.000000,,,,0.000000,4.000000,4.000000,4.000000,4.000000,4.000000,4.000000,4.000000,4.000000,4.000000,4.000000,4.000000,4.000000,4.000000,4.000000,100.000000,,,,,,,,,,,,,,,,,,,,,,,,,,,,
1703490711.637337,1703490711.637490,83.000000,0.000000,4238.846191,4179.358887,4263.461426,4267.179688,4254.102539,4290.641113,4175.000000,4257.307617,4239.358887,4217.820313,4445.897461,4430.000000,4326.538574,4335.512695,5676.000000,4.000000,89.000000,,,,0.000000,4.000000,4.000000,4.000000,4.000000,4.000000,4.000000,4.000000,4.000000,4.000000,4.000000,4.000000,4.000000,4.000000,4.000000,100.000000,,,,,,,,,,,,,,,,,,,,,,,,,,,,
1703490711.645145,1703490711.645398,84.000000,0.000000,4234.871582,4175.897461,4260.256348,4261.666504,4250.512695,4299.487305,4183.461426,4265.769043,4249.102539,4219.487305,4452.436035,4435.256348,4324.102539,4328.205078,5933.000000,4.000000,89.000000,,,,0.000000,4.000000,4.000000,4.000000,4.000000,4.000000,4.000000,4.000000,4.000000,4.000000,4.000000,4.000000,4.000000,4.000000,4.000000,100.000000,,,,,,,,,,,,,,,,,21.000000,0.000000,0.693668,-0.072998,-0.692017,-0.186035,0.981565,0.147479,0.032719,-19.814640,-34.085384,64.275566
1703490711.652954,1703490711.653206,85.000000,0.000000,4247.179688,4179.102539,4268.077148,4268.077148,4253.974121,4303.077148,4193.846191,4265.512695,4254.487305,4225.000000,4458.077148,4440.512695,4334.615234,4338.205078,3318.000000,4.000000,89.000000,,,,0.000000,4.000000,4.000000,4.000000,4.000000,4.000000,4.000000,4.000000,4.000000,4.000000,4.000000,4.000000,4.000000,4.000000,4.000000,100.000000,,,,,,,,,,,,,,,,,,,,,,,,,,,,
1703490711.660761,1703490711.661014,86.000000,0.000000,4256.538574,4187.692383,4277.307617,4280.512695,4256.410156,4299.615234,4201.282227,4262.436035,4250.128418,4225.256348,4454.230957,4442.692383,4339.230957,4343.205078,6038.000000,4.000000,89.000000,,,,0.000000,4.000000,4.000000,4.000000,4.000000,4.000000,4.000000,4.000000,4.000000,4.000000,4.000000,4.000000,4.000000,4.000000,4.000000,100.000000,,,,,,,,,,,,,,,,,,,,,,,,,,,,
1703490711.668569,1703490711.668722,87.000000,0.000000,4261.794922,4194.615234,4280.000000,4285.769043,4252.307617,4292.948730,4202.051270,4264.487305,4241.794922,4221.794922,4458.205078,4441.282227,4339.615234,4345.512695,5676.000000,4.000000,89.000000,,,,0.000000,4.000000,4.000000,4.000000,4.000000,4.000000,4.000000,4.000000,4.000000,4.000000,4.000000,4.000000,4.000000,4.000000,4.000000,100.000000,,,,,,,,,,,,,,,,,,,,,,,,,,,,
1703490711.676378,1703490711.676630,88.000000,0.000000,4271.410156,4201.410156,4283.589844,4288.333496,4252.051270,4285.641113,4200.256348,4258.974121,4233.333496,4219.615234,4462.563965,4442.948730,4344.102539,4353.333496,5933.000000,4.000000,89.000000,,,,0.000000,4.000000,4.000000,4.000000,4.000000,4.000000,4.000000,4.000000,4.000000,4.000000,4.000000,4.000000,4.000000,4.000000,4.000000,100.000000,,,,,,,,,,,,,,,,,22.000000,0.000000,0.693650,-0.073059,-0.692078,-0.185852,0.970822,0.145037,0.022464,-19.749844,-33.943512,64.298012
1703490711.684186,1703490711.684438,89.000000,0.000000,4275.256348,4206.922852,4291.922852,4290.897461,4257.179688,4283.717773,4197.948730,4250.641113,4229.230957,4219.871582,4458.717773,4444.615234,4348.589844,4353.974121,3318.000000,4.000000,89.000000,,,,0.000000,4.000000,4.000000,4.000000,4.000000,4.000000,4.000000,4.000000,4.000000,4.000000,4.000000,4.000000,4.000000,4.000000,4.000000,100.000000,,,,,,,,,,,,,,,,,,,,,,,,,,,,
1703490711.691994,1703490711.692345,90.000000,0.000000,4273.333496,4208.974121,4295.128418,4289.487305,4257.307617,4283.461426,4192.563965,4251.538574,4231.666504,4224.487305,4462.563965,4441.666504,4351.922852,4354.358887,6038.000000,4.000000,89.000000,,,,0.000000,4.000000,4.000000,4.000000,4.000000,4.000000,4.000000,4.000000,4.000000,4.000000,4.000000,4.000000,4.000000,4.000000,4.000000,100.000000,,,,,,,,,,,,,,,,,,,,,,,,,,,,
1703490711.699802,1703490711.700153,91.000000,0.000000,4272.436035,4209.743652,4291.282227,4288.333496,4255.641113,4279.615234,4191.666504,4253.846191,4236.410156,4230.128418,4470.641113,4441.922852,4353.717773,4361.025879,5676.000000,4.000000,89.000000,,,,0.000000,4.000000,4.000000,4.000000,4.000000,4.000000,4.000000,4.000000,4.000000,4.000000,4.000000,4.000000,4.000000,4.000000,4.000000,100.000000,,,,,,,,,,,,,,,,,,,,,,,,,,,,
1703490711.707610,1703490711.707961,92.000000,0.000000,4270.256348,4209.487305,4290.384766,4286.282227,4256.538574,4279.230957,4196.282227,4256.153809,4243.461426,4229.871582,4471.025879,4441.666504,4357.051270,4360.641113,5933.000000,4.000000,89.000000,,,,0.000000,4.000000,4.000000,4.000000,4.000000,4.000000,4.000000,4.000000,4.000000,4.000000,4.000000,4.000000,4.000000,4.000000,4.000000,100.000000,,,,,,,,,,,,,,,,,23.000000,0.000000,0.693651,-0.073242,-0.692139,-0.185547,0.980100,0.152362,0.034672,-19.841526,-33.832493,64.134872
1703490711.715418,1703490711.715669,93.000000,0.000000,4272.820313,4212.179688,4293.974121,4289.871582,4259.102539,4291.410156,4204.358887,4262.692383,4251.666504,4236.282227,4472.692383,4441.794922,4359.102539,4354.743652,3318.000000,4.000000,89.000000,,,,0.000000,4.000000,4.000000,4.000000,4.000000,4.000000,4.000000,4.000000,4.000000,4.000000,4.000000,4.000000,4.000000,4.000000,4.000000,100.000000,,,,,,,,,,,,,,,,,,,,,,,,,,,,
1703490711.723226,1703490711.723577,94.000000,0.000000,4280.641113,4221.025879,4297.179688,4300.641113,4269.358887,4307.692383,4214.230957,4267.436035,4259.358887,4249.743652,4477.692383,4447.436035,4357.692383,4356.666504,6038.000000,4.000000,89.000000,,,,0.000000,4.000000,4.000000,4.000000,4.000000,4.000000,4.000000,4.000000,4.000000,4.000000,4.000000,4.000000,4.000000,4.000000,4.000000,100.000000,,,,,,,,,,,,,,,,,,,,,,,,,,,,
1703490711.731034,1703490711.731385,95.000000,0.000000,4277.563965,4223.205078,4294.743652,4300.512695,4279.487305,4318.461426,4218.461426,4270.384766,4265.769043,4250.897461,4480.000000,4448.717773,4360.384766,4360.256348,5676.000000,4.000000,89.000000,,,,0.000000,4.000000,4.000000,4.000000,4.000000,4.000000,4.000000,4.000000,4.000000,4.000000,4.000000,4.000000,4.000000,4.000000,4.000000,100.000000,,,,,,,,,,,,,,,,,,,,,,,,,,,,
1703490711.738842,1703490711.739293,96.000000,0.000000,4272.179688,4220.000000,4293.461426,4297.692383,4282.820313,4327.307617,4223.589844,4273.717773,4267.179688,4245.128418,4477.051270,4443.974121,4361.025879,4353.461426,5933.000000,4.000000,89.000000,,,,0.000000,4.000000,4.000000,4.000000,4.000000,4.000000,4.000000,4.000000,4.000000,4.000000,4.000000,4.000000,4.000000,4.000000,4.000000,100.000000,,,,,,,,,,,,,,,,,24.000000,0.000000,0.693557,-0.073486,-0.692322,-0.185120,0.997192,0.153827,0.038579,-19.924040,-33.865910,64.271385
1703490711.746650,1703490711.747101,97.000000,0.000000,4275.256348,4223.077148,4297.563965,4301.282227,4281.666504,4329.743652,4230.128418,4271.153809,4263.846191,4246.538574,4473.077148,4445.641113,4358.717773,4349.743652,3318.000000,4.000000,89.000000,,,,0.000000,4.000000,4.000000,4.000000,4.000000,4.000000,4.000000,4.000000,4.000000,4.000000,4.000000,4.000000,4.000000,4.000000,4.000000,100.000000,,,,,,,,,,,,,,,,,,,,,,,,,,,,
1703490711.754458,1703490711.755009,98.000000,0.000000,4272.307617,4221.666504,4294.615234,4300.128418,4275.384766,4322.179688,4224.743652,4266.282227,4255.641113,4242.307617,4471.538574,4447.563965,4358.717773,4356.153809,6038.000000,4.000000,89.000000,,,,0.000000,4.000000,4.000000,4.000000,4.000000,4.000000,4.000000,4.000000,4.000000,4.000000,4.000000,4.000000,4.000000,4.000000,4.000000,100.000000,,,,,,,,,,,,,,,,,,,,,,,,,,,,
1703490711.762266,1703490711.762817,99.000000,0.000000,4267.692383,4219.358887,4292.692383,4298.974121,4269.358887,4314.871582,4217.179688,4268.205078,4247.563965,4236.666504,4471.794922,4445.641113,4359.230957,4359.871582,5676.000000,4.000000,89.000000,,,,0.000000,4.000000,4.000000,4.000000,4.000000,4.000000,4.000000,4.000000,4.000000,4.000000,4.000000,4.000000,4.000000,4.000000,4.000000,100.000000,,,,,,,,,,,,,,,,,,,,,,,,,,,,
1703490711.770074,1703490711.770725,100.000000,0.000000,4279.230957,4228.717773,4305.000000,4305.000000,4271.153809,4311.538574,4217.692383,4267.179688,4245.641113,4246.794922,4476.922852,4449.102539,4363.205078,4360.769043,5933.000000,4.000000,89.000000,,,,0.000000,4.000000,4.000000,4.000000,4.000000,4.000000,4.000000,4.000000,4.000000,4.000000,4.000000,4.000000,4.000000,4.000000,4.000000,100.000000,,,,,,,,,,,,,,,,,25.000000,0.000000,0.693650,-0.073792,-0.692261,-0.184875,0.971310,0.148456,0.024417,-19.781635,-33.795986,64.394249
1703490711.777882,1703490711.778533,101.000000,0.000000,4291.666504,4231.025879,4313.589844,4305.769043,4271.538574,4302.948730,4210.384766,4263.461426,4250.128418,4254.871582,4486.538574,4452.692383,4371.922852,4365.512695,3318.000000,4.000000,89.000000,,,,0.000000,4.000000,4.000000,4.000000,4.000000,4.000000,4.000000,4.000000,4.000000,4.000000,4.000000,4.000000,4.000000,4.000000,4.000000,100.000000,,,,,,,,,,,,,,,,,,,,,,,,,,,,
1703490711.785690,1703490711.786241,102.000000,0.000000,4290.128418,4229.358887,4309.102539,4303.077148,4266.794922,4291.410156,4196.794922,4263.717773,4255.000000,4254.871582,4492.563965,4453.205078,4378.461426,4369.102539,6038.000000,4.000000,89.000000,,,,0.000000,4.000000,4.000000,4.000000,4.000000,4.000000,4.000000,4.000000,4.000000,4.000000,4.000000,4.000000,4.000000,4.000000,4.000000,100.000000,,,,,,,,,,,,,,,,,,,,,,,,,,,,
1703490711.793498,1703490711.794049,103.000000,0.000000,4288.205078,4235.897461,4304.358887,4304.487305,4268.077148,4289.743652,4190.512695,4262.820313,4257.307617,4257.179688,4487.692383,4449.871582,4372.307617,4364.743652,5676.000000,4.000000,89.000000,,,,0.000000,4.000000,4.000000,4.000000,4.000000,4.000000,4.000000,4.000000,4.000000,4.000000,4.000000,4.000000,4.000000,4.000000,4.000000,100.000000,,,,,,,,,,,,,,,,,,,,,,,,,,,,
1703490711.801306,1703490711.801757,104.000000,0.000000,4286.666504,4230.128418,4298.717773,4297.563965,4265.512695,4287.179688,4185.769043,4257.692383,4255.384766,4248.461426,4474.102539,4440.000000,4356.666504,4354.615234,5933.000000,4.000000,89.000000,,,,0.000000,4.000000,4.000000,4.000000,4.000000,4.000000,4.000000,4.000000,4.000000,4.000000,4.000000,4.000000,4.000000,4.000000,4.000000,100.000000,,,,,,,,,,,,,,,,,26.000000,0.000000,0.693699,-0.074097,-0.692261,-0.184570,0.979123,0.139665,0.024905,-19.853472,-33.933056,64.321495
1703490711.809115,1703490711.809565,105.000000,0.000000,4279.615234,4215.128418,4290.512695,4284.743652,4253.333496,4281.025879,4182.051270,4257.051270,4253.205078,4235.128418,4465.897461,4434.615234,4347.051270,4346.025879,3318.000000,4.000000,89.000000,,,,0.000000,4.000000,4.000000,4.000000,4.000000,4.000000,4.000000,4.000000,4.000000,4.000000,4.000000,4.000000,4.000000,4.000000,4.000000,100.000000,,,,,,,,,,,,,,,,,,,,,,,,,,,,
1703490711.816923,1703490711.817273,106.000000,0.000000,4277.436035,4217.051270,4291.025879,4284.743652,4255.256348,4289.615234,4184.487305,4262.948730,4261.794922,4240.512695,4469.102539,4439.743652,4348.461426,4348.461426,6038.000000,4.000000,89.000000,,,,0.000000,4.000000,4.000000,4.000000,4.000000,4.000000,4.000000,4.000000,4.000000,4.000000,4.000000,4.000000,4.000000,4.000000,4.000000,100.000000,,,,,,,,,,,,,,,,,,,,,,,,,,,,
1703490711.824731,1703490711.825181,107.000000,0.000000,4277.563965,4221.282227,4295.641113,4288.974121,4264.358887,4308.461426,4188.461426,4266.282227,4264.102539,4244.102539,4474.487305,4443.205078,4348.974121,4354.358887,5676.000000,4.000000,89.000000,,,,0.000000,4.000000,4.000000,4.000000,4.000000,4.000000,4.000000,4.000000,4.000000,4.000000,4.000000,4.000000,4.000000,4.000000,4.000000,100.000000,,,,,,,,,,,,,,,,,,,,,,,,,,,,
1703490711.832539,1703490711.832989,108.000000,0.000000,4272.820313,4210.512695,4295.128418,4287.436035,4263.077148,4317.307617,4190.384766,4265.000000,4255.897461,4237.692383,4476.025879,4443.974121,4348.333496,4356.794922,5933.000000,4.000000,89.000000,,,,0.000000,4.000000,4.000000,4.000000,4.000000,4.000000,4.000000,4.000000,4.000000,4.000000,4.000000,4.000000,4.000000,4.000000,4.000000,100.000000,,,,,,,,,,,,,,,,,27.000000,0.000000,0.693664,-0.074158,-0.692322,-0.184448,0.975705,0.138689,0.030765,-19.801458,-33.856415,64.239342
1703490711.840347,1703490711.840797,109.000000,0.000000,4271.666504,4207.436035,4295.512695,4283.717773,4256.794922,4314.102539,4188.077148,4265.000000,4255.000000,4239.743652,4478.077148,4448.333496,4348.461426,4356.794922,3318.000000,4.000000,89.000000,,,,0.000000,4.000000,4.000000,4.000000,4.000000,4.000000,4.000000,4.000000,4.000000,4.000000,4.000000,4.000000,4.000000,4.000000,4.000000,100.000000,,,,,,,,,,,,,,,,,,,,,,,,,,,,
1703490711.848155,1703490711.848505,110.000000,0.000000,4274.230957,4215.384766,4295.641113,4283.589844,4253.333496,4308.846191,4184.358887,4263.846191,4251.153809,4237.051270,4473.717773,4450.512695,4341.922852,4351.666504,6038.000000,4.000000,89.000000,,,,0.000000,4.000000,4.000000,4.000000,4.000000,4.000000,4.000000,4.000000,4.000000,4.000000,4.000000,4.000000,4.000000,4.000000,4.000000,100.000000,,,,,,,,,,,,,,,,,,,,,,,,,,,,
1703490711.855963,1703490711.856413,111.000000,0.000000,4274.743652,4218.461426,4294.358887,4288.077148,4258.205078,4306.282227,4183.846191,4261.922852,4239.230957,4229.358887,4466.794922,4447.820313,4339.487305,4353.846191,5676.000000,4.000000,89.000000,,,,0.000000,4.000000,4.000000,4.000000,4.000000,4.000000,4.000000,4.000000,4.000000,4.000000,4.000000,4.000000,4.000000,4.000000,4.000000,100.000000,,,,,,,,,,,,,,,,,,,,,,,,,,,,
1703490711.863771,1703490711.864221,112.000000,0.000000,4275.769043,4221.025879,4297.563965,4290.256348,4263.974121,4299.871582,4178.589844,4262.948730,4238.077148,4233.205078,4470.384766,4447.563965,4346.282227,4361.025879,5933.000000,4.000000,89.000000,,,,0.000000,4.000000,4.000000,4.000000,4.000000,4.000000,4.000000,4.000000,4.000000,4.000000,4.000000,4.000000,4.000000,4.000000,4.000000,100.000000,,,,,,,,,,,,,,,,,28.000000,0.000000,0.693591,-0.074158,-0.692444,-0.184265,0.973263,0.136247,0.029789,-19.854645,-33.920773,64.282074
1703490711.871579,1703490711.872029,113.000000,0.000000,4274.487305,4227.307617,4297.051270,4288.974121,4258.717773,4287.436035,4168.974121,4261.410156,4247.051270,4240.000000,4475.769043,4447.436035,4345.897461,4355.897461,3318.000000,4.000000,89.000000,,,,0.000000,4.000000,4.000000,4.000000,4.000000,4.000000,4.000000,4.000000,4.000000,4.000000,4.000000,4.000000,4.000000,4.000000,4.000000,100.000000,,,,,,,,,,,,,,,,,,,,,,,,,,,,
1703490711.879387,1703490711.879737,114.000000,0.000000,4271.922852,4228.846191,4292.820313,4290.641113,4254.487305,4281.794922,4165.512695,4259.871582,4247.948730,4243.205078,4471.410156,4445.256348,4341.025879,4344.615234,6038.000000,4.000000,89.000000,,,,0.000000,4.000000,4.000000,4.000000,4.000000,4.000000,4.000000,4.000000,4.000000,4.000000,4.000000,4.000000,4.000000,4.000000,4.000000,100.000000,,,,,,,,,,,,,,,,,,,,,,,,,,,,
1703490711.887195,1703490711.887645,115.000000,0.000000,4274.615234,4222.820313,4293.461426,4292.948730,4262.179688,4288.461426,4167.436035,4264.102539,4250.256348,4250.641113,4471.282227,4445.512695,4344.230957,4344.487305,5676.000000,4.000000,89.000000,,,,0.000000,4.000000,4.000000,4.000000,4.000000,4.000000,4.000000,4.000000,4.000000,4.000000,4.000000,4.000000,4.000000,4.000000,4.000000,100.000000,,,,,,,,,,,,,,,,,,,,,,,,,,,,
1703490711.895003,1703490711.895453,116.000000,0.000000,4277.179688,4225.769043,4294.102539,4293.846191,4267.051270,4295.256348,4168.974121,4265.256348,4261.025879,4255.256348,4479.871582,4446.153809,4351.922852,4352.692383,5933.000000,4.000000,89.000000,,,,0.000000,4.000000,4.000000,4.000000,4.000000,4.000000,4.000000,4.000000,4.000000,4.000000,4.000000,4.000000,4.000000,4.000000,4.000000,100.000000,,,,,,,,,,,,,,,,,29.000000,0.000000,0.693627,-0.073975,-0.692444,-0.184204,0.982053,0.141131,0.040532,-19.919182,-34.128696,64.353867
1703490711.902811,1703490711.903360,117.000000,0.000000,4277.563965,4235.256348,4292.563965,4295.897461,4268.717773,4303.717773,4173.846191,4262.051270,4264.102539,4256.025879,4479.871582,4447.307617,4350.641113,4353.589844,3318.000000,4.000000,89.000000,,,,0.000000,4.000000,4.000000,4.000000,4.000000,4.000000,4.000000,4.000000,4.000000,4.000000,4.000000,4.000000,4.000000,4.000000,4.000000,100.000000,,,,,,,,,,,,,,,,,,,,,,,,,,,,
1703490711.910619,1703490711.911168,118.000000,0.000000,4278.589844,4235.769043,4298.205078,4300.769043,4280.256348,4321.794922,4184.230957,4266.025879,4264.487305,4261.538574,4474.615234,4450.769043,4345.769043,4351.538574,6038.000000,4.000000,89.000000,,,,0.000000,4.000000,4.000000,4.000000,4.000000,4.000000,4.000000,4.000000,4.000000,4.000000,4.000000,4.000000,4.000000,4.000000,4.000000,100.000000,,,,,,,,,,,,,,,,,,,,,,,,,,,,
1703490711.918427,1703490711.919076,119.000000,0.000000,4284.487305,4234.230957,4308.846191,4310.384766,4289.230957,4339.487305,4196.794922,4274.871582,4274.743652,4267.307617,4488.077148,4455.256348,4357.307617,4362.948730,5676.000000,4.000000,89.000000,,,,0.000000,4.000000,4.000000,4.000000,4.000000,4.000000,4.000000,4.000000,4.000000,4.000000,4.000000,4.000000,4.000000,4.000000,4.000000,100.000000,,,,,,,,,,,,,,,,,,,,,,,,,,,,
1703490711.926235,1703490711.926884,120.000000,0.000000,4294.230957,4244.102539,4313.461426,4318.589844,4290.769043,4347.307617,4204.230957,4278.077148,4279.743652,4269.871582,4502.563965,4461.153809,4373.333496,4382.820313,5933.000000,4.000000,89.000000,,,,0.000000,4.000000,4.000000,4.000000,4.000000,4.000000,4.000000,4.000000,4.000000,4.000000,4.000000,4.000000,4.000000,4.000000,4.000000,100.000000,,,,,,,,,,,,,,,,,30.000000,0.000000,0.693710,-0.073914,-0.692383,-0.184143,0.976193,0.144549,0.022464,-19.910597,-34.165829,64.351814
1703490711.934044,1703490711.934792,121.000000,0.000000,4300.256348,4254.102539,4315.000000,4319.487305,4294.102539,4346.922852,4205.641113,4277.051270,4271.538574,4275.128418,4500.512695,4465.512695,4375.769043,4388.589844,3318.000000,4.000000,89.000000,,,,0.000000,4.000000,4.000000,4.000000,4.000000,4.000000,4.000000,4.000000,4.000000,4.000000,4.000000,4.000000,4.000000,4.000000,4.000000,100.000000,,,,,,,,,,,,,,,,,,,,,,,,,,,,
1703490711.941852,1703490711.942600,122.000000,0.000000,4301.538574,4255.769043,4319.230957,4321.410156,4299.358887,4343.974121,4210.384766,4277.563965,4267.051270,4280.000000,4505.000000,4465.384766,4380.128418,4389.487305,6038.000000,4.000000,89.000000,,,,0.000000,4.000000,4.000000,4.000000,4.000000,4.000000,4.000000,4.000000,4.000000,4.000000,4.000000,4.000000,4.000000,4.000000,4.000000,100.000000,,,,,,,,,,,,,,,,,,,,,,,,,,,,
1703490711.949659,1703490711.950508,123.000000,0.000000,4310.641113,4262.307617,4328.205078,4329.487305,4302.179688,4345.897461,4216.282227,4279.743652,4272.051270,4285.512695,4522.563965,4470.384766,4394.743652,4403.205078,5676.000000,4.000000,89.000000,,,,0.000000,4.000000,4.000000,4.000000,4.000000,4.000000,4.000000,4.000000,4.000000,4.000000,4.000000,4.000000,4.000000,4.000000,4.000000,100.000000,,,,,,,,,,,,,,,,,,,,,,,,,,,,
1703490711.957468,1703490711.958316,124.000000,0.000000,4322.563965,4272.051270,4338.077148,4338.333496,4303.846191,4348.974121,4217.563965,4280.256348,4278.974121,4295.384766,4532.692383,4478.589844,4405.769043,4415.256348,5933.000000,4.000000,89.000000,,,,0.000000,4.000000,4.000000,4.000000,4.000000,4.000000,4.000000,4.000000,4.000000,4.000000,4.000000,4.000000,4.000000,4.000000,4.000000,100.000000,,,,,,,,,,,,,,,,,31.000000,0.000000,0.693730,-0.073730,-0.692383,-0.184143,0.977170,0.144061,0.030765,-19.886204,-34.182579,64.366631
1703490711.965276,1703490711.966024,125.000000,0.000000,4322.436035,4275.000000,4340.384766,4343.333496,4304.871582,4343.589844,4214.615234,4280.256348,4282.051270,4301.025879,4532.436035,4478.717773,4406.922852,4413.846191,3318.000000,4.000000,89.000000,,,,0.000000,4.000000,4.000000,4.000000,4.000000,4.000000,4.000000,4.000000,4.000000,4.000000,4.000000,4.000000,4.000000,4.000000,4.000000,100.000000,,,,,,,,,,,,,,,,,,,,,,,,,,,,
1703490711.973084,1703490711.973832,126.000000,0.000000,4323.846191,4277.948730,4340.512695,4345.512695,4307.692383,4340.256348,4214.230957,4282.820313,4286.666504,4300.897461,4535.897461,4478.846191,4412.307617,4415.000000,6038.000000,4.000000,89.000000,,,,0.000000,4.000000,4.000000,4.000000,4.000000,4.000000,4.000000,4.000000,4.000000,4.000000,4.000000,4.000000,4.000000,4.000000,4.000000,100.000000,,,,,,,,,,,,,,,,,,,,,,,,,,,,
1703490711.980892,1703490711.981540,127.000000,0.000000,4330.512695,4284.615234,4345.000000,4352.692383,4316.025879,4351.538574,4222.436035,4283.333496,4294.743652,4302.820313,4539.871582,4480.256348,4420.641113,4420.000000,89.000000,4.000000,89.000000,,,,0.000000,4.000000,4.000000,4.000000,4.000000,4.000000,4.000000,4.000000,4.000000,4.000000,4.000000,4.000000,4.000000,4.000000,4.000000,100.000000,,,,,,,,,,,,,,,,,,,,,,,,,,,,
1703490711.988700,1703490711.989348,0.000000,0.000000,4323.461426,4284.871582,4345.897461,4357.563965,4319.230957,4361.282227,4227.307617,4283.333496,4299.230957,4301.538574,4534.102539,4477.051270,4413.974121,4413.461426,4944.000000,4.000000,89.000000,,,,0.000000,4.000000,4.000000,4.000000,4.000000,4.000000,4.000000,4.000000,4.000000,4.000000,4.000000,4.000000,4.000000,4.000000,4.000000,100.000000,,,,,,,,,,,,,,,,,0.000000,0.000000,0.693823,-0.073425,-0.692322,-0.184143,0.984984,0.137712,0.022952,-19.830915,-34.264320,64.279968
1703490711.996508,1703490711.997056,1.000000,0.000000,4314.487305,4283.077148,4339.230957,4350.641113,4318.846191,4364.358887,4225.128418,4288.974121,4301.410156,4299.487305,4528.077148,4473.461426,4399.487305,4409.487305,5661.000000,4.000000,89.000000,,,,0.000000,4.000000,4.000000,4.000000,4.000000,4.000000,4.000000,4.000000,4.000000,4.000000,4.000000,4.000000,4.000000,4.000000,4.000000,100.000000,,,,,,,,,,,,,,,,,,,,,,,,,,,,
1703490712.004316,1703490712.004864,2.000000,0.000000,4324.102539,4290.256348,4338.974121,4351.666504,4330.256348,4382.436035,4232.563965,4294.487305,4309.871582,4307.436035,4532.820313,4476.538574,4400.897461,4418.846191,5332.000000,4.000000,89.000000,,,,0.000000,4.000000,4.000000,4.000000,4.000000,4.000000,4.000000,4.000000,4.000000,4.000000,4.000000,4.000000,4.000000,4.000000,4.000000,100.000000,,,,,,,,,,,,,,,,,,,,,,,,,,,,
1703490712.012124,1703490712.012572,3.000000,0.000000,4332.307617,4298.461426,4350.256348,4362.692383,4342.307617,4405.000000,4248.589844,4297.820313,4317.820313,4320.641113,4543.846191,4483.461426,4416.282227,4427.307617,5516.000000,4.000000,89.000000,,,,0.000000,4.000000,4.000000,4.000000,4.000000,4.000000,4.000000,4.000000,4.000000,4.000000,4.000000,4.000000,4.000000,4.000000,4.000000,100.000000,,,,,,,,,,,,,,,,,,,,,,,,,,,,
1703490712.019932,1703490712.020380,4.000000,0.000000,4331.410156,4305.769043,4358.974121,4368.717773,4341.666504,4409.102539,4257.948730,4301.922852,4315.512695,4326.922852,4551.794922,4486.922852,4428.846191,4426.794922,5295.000000,4.000000,89.000000,,,,0.000000,4.000000,4.000000,4.000000,4.000000,4.000000,4.000000,4.000000,4.000000,4.000000,4.000000,4.000000,4.000000,4.000000,4.000000,100.000000,,,,,,,,,,,,,,,,,1.000000,0.000000,0.693829,-0.073059,-0.692322,-0.184265,0.984984,0.154316,0.041997,-19.847824,-34.354553,64.268639
1703490712.027740,1703490712.028088,5.000000,0.000000,4343.589844,4314.487305,4363.589844,4377.436035,4343.717773,4410.128418,4262.436035,4305.384766,4311.153809,4326.153809,4557.051270,4491.282227,4434.743652,4430.897461,5116.000000,4.000000,89.000000,,,,0.000000,4.000000,4.000000,4.000000,4.000000,4.000000,4.000000,4.000000,4.000000,4.000000,4.000000,4.000000,4.000000,4.000000,4.000000,100.000000,,,,,,,,,,,,,,,,,,,,,,,,,,,,
1703490712.035548,1703490712.035896,6.000000,0.000000,4360.512695,4322.820313,4373.333496,4388.461426,4353.846191,4418.333496,4266.794922,4308.717773,4315.512695,4329.743652,4563.333496,4498.205078,4441.794922,4447.179688,3525.000000,4.000000,89.000000,,,,0.000000,4.000000,4.000000,4.000000,4.000000,4.000000,4.000000,4.000000,4.000000,4.000000,4.000000,4.000000,4.000000,4.000000,4.000000,100.000000,,,,,,,,,,,,,,,,,,,,,,,,,,,,
1703490712.043356,1703490712.043604,7.000000,0.000000,4362.563965,4324.358887,4381.666504,4390.384766,4353.205078,4411.666504,4266.025879,4310.769043,4321.666504,4337.692383,4571.153809,4498.974121,4453.333496,4455.384766,2822.000000,4.000000,89.000000,,,,0.000000,4.000000,4.000000,4.000000,4.000000,4.000000,4.000000,4.000000,4.000000,4.000000,4.000000,4.000000,4.000000,4.000000,4.000000,100.000000,1.000000,75.000000,4.000000,4.000000,4.000000,4.000000,3.000000,3.000000,3.000000,4.000000,4.000000,4.000000,4.000000,4.000000,4.000000,4.000000,,,,,,,,,,,,
1703490712.051164,1703490712.051512,8.000000,0.000000,4360.897461,4322.436035,4384.230957,4390.512695,4345.897461,4392.948730,4262.051270,4308.589844,4318.846191,4337.692383,4573.974121,4499.102539,4457.820313,4453.974121,4283.000000,4.000000,89.000000,,,,0.000000,4.000000,4.000000,4.000000,4.000000,4.000000,4.000000,4.000000,4.000000,4.000000,4.000000,4.000000,4.000000,4.000000,4.000000,100.000000,,,,,,,,,,,,,,,,,2.000000,0.000000,0.693810,-0.072937,-0.692322,-0.184387,0.980100,0.157246,0.027347,-19.896376,-34.369099,64.275108
1703490712.058972,1703490712.059320,9.000000,0.000000,4370.512695,4330.384766,4390.897461,4399.102539,4349.743652,4393.205078,4264.230957,4307.692383,4319.871582,4336.666504,4570.128418,4504.743652,4453.846191,4459.230957,5450.000000,4.000000,89.000000,,,,0.000000,4.000000,4.000000,4.000000,4.000000,4.000000,4.000000,4.000000,4.000000,4.000000,4.000000,4.000000,4.000000,4.000000,4.000000,100.000000,,,,,,,,,,,,,,,,,,,,,,,,,,,,
1703490712.066780,1703490712.067128,10.000000,0.000000,4377.563965,4339.743652,4399.487305,4407.692383,4358.205078,4410.256348,4273.974121,4311.922852,4332.820313,4343.077148,4568.077148,4505.000000,4455.512695,4466.410156,5975.000000,4.000000,89.000000,,,,0.000000,4.000000,4.000000,4.000000,4.000000,4.000000,4.000000,4.000000,4.000000,4.000000,4.000000,4.000000,4.000000,4.000000,4.000000,100.000000,,,,,,,,,,,,,,,,,,,,,,,,,,,,
1703490712.074588,1703490712.074836,11.000000,0.000000,4369.615234,4338.589844,4397.179688,4407.436035,4361.922852,4417.820313,4280.128418,4313.205078,4335.512695,4344.615234,4567.179688,4500.641113,4460.641113,4466.410156,5654.000000,4.000000,89.000000,,,,0.000000,4.000000,4.000000,4.000000,4.000000,4.000000,4.000000,4.000000,4.000000,4.000000,4.000000,4.000000,4.000000,4.000000,4.000000,100.000000,,,,,,,,,,,,,,,,,,,,,,,,,,,,
1703490712.082396,1703490712.082644,12.000000,0.000000,4361.922852,4335.256348,4389.871582,4404.230957,4365.897461,4418.205078,4276.922852,4313.205078,4331.538574,4342.179688,4565.512695,4500.897461,4460.384766,4467.051270,5876.000000,4.000000,89.000000,,,,0.000000,4.000000,4.000000,4.000000,4.000000,4.000000,4.000000,4.000000,4.000000,4.000000,4.000000,4.000000,4.000000,4.000000,4.000000,100.000000,,,,,,,,,,,,,,,,,3.000000,0.000000,0.693886,-0.073059,-0.692200,-0.184509,0.992797,0.146502,0.020022,-19.906738,-34.398857,64.264267
1703490712.090205,1703490712.090352,13.000000,0.000000,4363.846191,4337.179688,4388.846191,4407.820313,4371.538574,4425.769043,4279.487305,4319.102539,4341.025879,4346.410156,4565.512695,4501.794922,4457.692383,4463.205078,3298.000000,4.000000,89.000000,,,,0.000000,4.000000,4.000000,4.000000,4.000000,4.000000,4.000000,4.000000,4.000000,4.000000,4.000000,4.000000,4.000000,4.000000,4.000000,100.000000,,,,,,,,,,,,,,,,,,,,,,,,,,,,
1703490712.098013,1703490712.098260,14.000000,0.000000,4367.436035,4342.179688,4391.794922,4418.333496,4377.692383,4441.794922,4294.358887,4325.769043,4351.922852,4355.000000,4573.589844,4503.461426,4462.307617,4461.666504,5975.000000,4.000000,89.000000,,,,0.000000,4.000000,4.000000,4.000000,4.000000,4.000000,4.000000,4.000000,4.000000,4.000000,4.000000,4.000000,4.000000,4.000000,4.000000,100.000000,,,,,,,,,,,,,,,,,,,,,,,,,,,,
1703490712.105821,1703490712.106068,15.000000,0.000000,4368.846191,4346.282227,4395.256348,4420.384766,4378.205078,4454.615234,4303.461426,4327.307617,4351.922852,4358.077148,4581.922852,4511.153809,4471.794922,4472.563965,5654.000000,4.000000,89.000000,,,,0.000000,4.000000,4.000000,4.000000,4.000000,4.000000,4.000000,4.000000,4.000000,4.000000,4.000000,4.000000,4.000000,4.000000,4.000000,100.000000,,,,,,,,,,,,,,,,,,,,,,,,,,,,
1703490712.113629,1703490712.113976,16.000000,0.000000,4372.820313,4343.589844,4397.307617,4411.410156,4372.051270,4454.743652,4300.256348,4326.666504,4348.717773,4353.333496,4578.333496,4515.128418,4469.743652,4473.461426,0.000000,4.000000,89.000000,,,,0.000000,4.000000,4.000000,4.000000,4.000000,4.000000,4.000000,4.000000,4.000000,4.000000,4.000000,4.000000,4.000000,4.000000,4.000000,100.000000,,,,,,,,,,,,,,,,,4.000000,0.000000,0.693887,-0.073364,-0.692200,-0.184387,0.982053,0.147479,0.038579,-19.832731,-34.342304,64.421173
1703490712.121437,1703490712.121784,17.000000,0.000000,4374.743652,4338.077148,4394.871582,4406.025879,4369.615234,4446.410156,4298.077148,4323.717773,4343.205078,4351.410156,4573.205078,4508.974121,4461.922852,4466.922852,0.000000,4.000000,89.000000,,,,0.000000,4.000000,4.000000,4.000000,4.000000,4.000000,4.000000,4.000000,4.000000,4.000000,4.000000,4.000000,4.000000,4.000000,4.000000,100.000000,,,,,,,,,,,,,,,,,,,,,,,,,,,,
1703490712.129245,1703490712.129692,18.000000,0.000000,4375.897461,4340.641113,4397.948730,4406.666504,4373.461426,4440.769043,4303.846191,4323.333496,4337.820313,4356.922852,4577.436035,4510.384766,4470.000000,4475.641113,0.000000,4.000000,89.000000,,,,0.000000,4.000000,4.000000,4.000000,4.000000,4.000000,4.000000,4.000000,4.000000,4.000000,4.000000,4.000000,4.000000,4.000000,4.000000,100.000000,,,,,,,,,,,,,,,,,,,,,,,,,,,,
1703490712.137053,1703490712.137500,19.000000,0.000000,4385.384766,4348.589844,4409.871582,4411.922852,4373.717773,4440.000000,4305.897461,4325.512695,4339.871582,4360.256348,4587.436035,4521.666504,4484.871582,4489.230957,0.000000,4.000000,89.000000,,,,0.000000,4.000000,4.000000,4.000000,4.000000,4.000000,4.000000,4.000000,4.000000,4.000000,4.000000,4.000000,4.000000,4.000000,4.000000,100.000000,,,,,,,,,,,,,,,,,,,,,,,,,,,,
1703490712.144861,1703490712.145407,20.000000,0.000000,4392.307617,4355.256348,4414.615234,4416.538574,4370.641113,4433.205078,4297.820313,4321.922852,4344.615234,4361.538574,4591.538574,4522.051270,4487.436035,4492.820313,0.000000,4.000000,89.000000,,,,0.000000,4.000000,4.000000,4.000000,4.000000,4.000000,4.000000,4.000000,4.000000,4.000000,4.000000,4.000000,4.000000,4.000000,4.000000,100.000000,,,,,,,,,,,,,,,,,5.000000,0.000000,0.693861,-0.073486,-0.692261,-0.184204,0.967403,0.145037,0.019534,-19.766125,-34.424740,64.479057
1703490712.152669,1703490712.153215,21.000000,0.000000,4388.589844,4358.205078,4411.794922,4417.948730,4376.794922,4426.025879,4292.948730,4319.487305,4346.153809,4364.871582,4583.717773,4516.025879,4480.512695,4485.384766,0.000000,4.000000,89.000000,,,,0.000000,4.000000,4.000000,4.000000,4.000000,4.000000,4.000000,4.000000,4.000000,4.000000,4.000000,4.000000,4.000000,4.000000,4.000000,100.000000,,,,,,,,,,,,,,,,,,,,,,,,,,,,
1703490712.160477,1703490712.160924,22.000000,0.000000,4382.563965,4356.922852,4406.922852,4415.512695,4382.436035,4429.743652,4293.589844,4322.692383,4348.461426,4363.205078,4573.077148,4515.000000,4471.794922,4476.153809,0.000000,4.000000,89.000000,,,,0.000000,4.000000,4.000000,4.000000,4.000000,4.000000,4.000000,4.000000,4.000000,4.000000,4.000000,4.000000,4.000000,4.000000,4.000000,100.000000,,,,,,,,,,,,,,,,,,,,,,,,,,,,
1703490712.168285,1703490712.168731,23.000000,0.000000,4379.230957,4358.333496,4400.384766,4413.974121,4377.692383,4438.333496,4295.897461,4324.230957,4355.256348,4361.025879,4573.333496,4516.410156,4470.897461,4482.563965,0.000000,4.000000,89.000000,,,,0.000000,4.000000,4.000000,4.000000,4.000000,4.000000,4.000000,4.000000,4.000000,4.000000,4.000000,4.000000,4.000000,4.000000,4.000000,100.000000,,,,,,,,,,,,,,,,,,,,,,,,,,,,
1703490712.176093,1703490712.176440,24.000000,0.000000,4376.153809,4360.641113,4397.692383,4413.589844,4376.282227,4442.692383,4301.153809,4326.538574,4362.692383,4366.794922,4577.436035,4516.922852,4475.512695,4491.410156,0.000000,4.000000,89.000000,,,,0.000000,4.000000,4.000000,4.000000,4.000000,4.000000,4.000000,4.000000,4.000000,4.000000,4.000000,4.000000,4.000000,4.000000,4.000000,100.000000,,,,,,,,,,,,,,,,,6.000000,0.000000,0.693871,-0.073547,-0.692261,-0.184143,0.978635,0.147479,0.022464,-19.689512,-34.598934,64.547813
1703490712.183901,1703490712.184248,25.000000,0.000000,4371.666504,4354.358887,4393.717773,4409.358887,4379.102539,4440.000000,4305.641113,4329.102539,4359.358887,4363.974121,4567.307617,4511.410156,4471.153809,4480.769043,0.000000,4.000000,89.000000,,,,0.000000,4.000000,4.000000,4.000000,4.000000,4.000000,4.000000,4.000000,4.000000,4.000000,4.000000,4.000000,4.000000,4.000000,4.000000,100.000000,,,,,,,,,,,,,,,,,,,,,,,,,,,,
1703490712.191709,1703490712.191956,26.000000,0.000000,4364.358887,4344.102539,4386.794922,4402.563965,4374.871582,4438.846191,4308.333496,4325.641113,4348.974121,4349.230957,4555.384766,4506.538574,4461.538574,4470.000000,0.000000,4.000000,89.000000,,,,0.000000,4.000000,4.000000,4.000000,4.000000,4.000000,4.000000,4.000000,4.000000,4.000000,4.000000,4.000000,4.000000,4.000000,4.000000,100.000000,,,,,,,,,,,,,,,,,,,,,,,,,,,,
1703490712.199517,1703490712.199863,27.000000,0.000000,4363.589844,4347.692383,4389.615234,4400.897461,4376.153809,4445.769043,4311.538574,4325.769043,4351.153809,4351.538574,4564.615234,4512.563965,4466.794922,4484.615234,0.000000,4.000000,89.000000,,,,0.000000,4.000000,4.000000,4.000000,4.000000,4.000000,4.000000,4.000000,4.000000,4.000000,4.000000,4.000000,4.000000,4.000000,4.000000,100.000000,,,,,,,,,,,,,,,,,,,,,,,,,,,,
1703490712.207325,1703490712.207671,28.000000,0.000000,4376.538574,4357.948730,4400.128418,4411.153809,4384.615234,4447.563965,4313.333496,4328.589844,4353.077148,4363.717773,4574.743652,4518.461426,4473.974121,4494.871582,0.000000,4.000000,89.000000,,,,0.000000,4.000000,4.000000,4.000000,4.000000,4.000000,4.000000,4.000000,4.000000,4.000000,4.000000,4.000000,4.000000,4.000000,4.000000,100.000000,,,,,,,,,,,,,,,,,7.000000,0.000000,0.694003,-0.073608,-0.692139,-0.184082,0.981077,0.142107,0.028324,-19.770561,-34.572372,64.509697
1703490712.215133,1703490712.215479,29.000000,0.000000,4379.743652,4355.256348,4399.487305,4414.230957,4379.743652,4436.538574,4311.538574,4322.307617,4337.563965,4355.384766,4560.384766,4515.256348,4465.256348,4478.333496,0.000000,4.000000,89.000000,,,,0.000000,4.000000,4.000000,4.000000,4.000000,4.000000,4.000000,4.000000,4.000000,4.000000,4.000000,4.000000,4.000000,4.000000,4.000000,100.000000,,,,,,,,,,,,,,,,,,,,,,,,,,,,
1703490712.222942,1703490712.223187,30.000000,0.000000,4371.282227,4352.307617,4394.487305,4405.128418,4376.153809,4431.025879,4312.051270,4321.025879,4329.102539,4344.871582,4555.128418,4510.897461,4462.948730,4474.358887,0.000000,4.000000,89.000000,,,,0.000000,4.000000,4.000000,4.000000,4.000000,4.000000,4.000000,4.000000,4.000000,4.000000,4.000000,4.000000,4.000000,4.000000,4.000000,100.000000,,,,,,,,,,,,,,,,,,,,,,,,,,,,
1703490712.230749,1703490712.231095,31.000000,0.000000,4376.922852,4361.282227,4403.333496,4407.179688,4381.538574,4432.948730,4317.307617,4327.820313,4338.461426,4350.769043,4572.179688,4515.897461,4471.794922,4493.461426,0.000000,4.000000,89.000000,,,,0.000000,4.000000,4.000000,4.000000,4.000000,4.000000,4.000000,4.000000,4.000000,4.000000,4.000000,4.000000,4.000000,4.000000,4.000000,100.000000,,,,,,,,,,,,,,,,,,,,,,,,,,,,
1703490712.238557,1703490712.238903,32.000000,0.000000,4384.102539,4364.487305,4411.282227,4415.128418,4376.025879,4425.384766,4318.077148,4327.051270,4343.974121,4356.410156,4575.897461,4524.871582,4476.666504,4499.487305,0.000000,4.000000,89.000000,,,,0.000000,4.000000,4.000000,4.000000,4.000000,4.000000,4.000000,4.000000,4.000000,4.000000,4.000000,4.000000,4.000000,4.000000,4.000000,100.000000,,,,,,,,,,,,,,,,,8.000000,0.000000,0.693993,-0.073547,-0.692139,-0.184143,0.984495,0.132340,0.025882,-19.776838,-34.531803,64.525398
1703490712.246366,1703490712.246811,33.000000,0.000000,4378.333496,4358.205078,4408.205078,4417.436035,4367.436035,4415.769043,4314.102539,4321.666504,4344.615234,4355.256348,4568.717773,4522.179688,4475.897461,4489.230957,0.000000,4.000000,89.000000,,,,0.000000,4.000000,4.000000,4.000000,4.000000,4.000000,4.000000,4.000000,4.000000,4.000000,4.000000,4.000000,4.000000,4.000000,4.000000,100.000000,,,,,,,,,,,,,,,,,,,,,,,,,,,,
1703490712.254174,1703490712.254619,34.000000,0.000000,4378.461426,4359.230957,4408.077148,4417.563965,4376.538574,4421.410156,4316.153809,4325.897461,4353.077148,4353.461426,4572.179688,4517.820313,4474.358887,4493.974121,0.000000,4.000000,89.000000,,,,0.000000,4.000000,4.000000,4.000000,4.000000,4.000000,4.000000,4.000000,4.000000,4.000000,4.000000,4.000000,4.000000,4.000000,4.000000,100.000000,,,,,,,,,,,,,,,,,,,,,,,,,,,,
1703490712.261982,1703490712.262527,35.000000,0.000000,4383.717773,4361.025879,4410.128418,4416.282227,4387.436035,4433.589844,4324.615234,4331.538574,4360.512695,4356.666504,4580.128418,4525.384766,4478.589844,4507.051270,0.000000,4.000000,89.000000,,,,0.000000,4.000000,4.000000,4.000000,4.000000,4.000000,4.000000,4.000000,4.000000,4.000000,4.000000,4.000000,4.000000,4.000000,4.000000,100.000000,,,,,,,,,,,,,,,,,,,,,,,,,,,,
1703490712.269790,1703490712.270335,36.000000,0.000000,4373.589844,4353.974121,4400.128418,4408.974121,4381.794922,4436.282227,4326.153809,4329.871582,4358.846191,4360.897461,4576.922852,4526.282227,4480.128418,4500.897461,0.000000,4.000000,89.000000,,,,0.000000,4.000000,4.000000,4.000000,4.000000,4.000000,4.000000,4.000000,4.000000,4.000000,4.000000,4.000000,4.000000,4.000000,4.000000,100.000000,,,,,,,,,,,,,,,,,9.000000,0.000000,0.694047,-0.073608,-0.692078,-0.184143,0.993774,0.145526,0.039556,-19.849154,-34.428623,64.606194
1703490712.277598,1703490712.278243,37.000000,0.000000,4363.205078,4352.563965,4393.461426,4406.666504,4378.077148,4432.948730,4326.025879,4327.436035,4358.974121,4362.179688,4571.410156,4517.436035,4475.512695,4489.230957,0.000000,4.000000,89.000000,,,,0.000000,4.000000,4.000000,4.000000,4.000000,4.000000,4.000000,4.000000,4.000000,4.000000,4.000000,4.000000,4.000000,4.000000,4.000000,100.000000,,,,,,,,,,,,,,,,,,,,,,,,,,,,
1703490712.285406,1703490712.286051,38.000000,0.000000,4373.205078,4360.000000,4401.538574,4412.179688,4385.384766,4440.512695,4335.512695,4329.487305,4362.051270,4366.025879,4576.922852,4519.102539,4477.436035,4490.512695,0.000000,4.000000,89.000000,,,,0.000000,4.000000,4.000000,4.000000,4.000000,4.000000,4.000000,4.000000,4.000000,4.000000,4.000000,4.000000,4.000000,4.000000,4.000000,100.000000,,,,,,,,,,,,,,,,,,,,,,,,,,,,
1703490712.293214,1703490712.293959,39.000000,0.000000,4383.589844,4362.179688,4404.358887,4413.077148,4386.282227,4452.051270,4342.820313,4333.077148,4357.820313,4370.384766,4584.230957,4526.666504,4486.025879,4498.589844,0.000000,4.000000,89.000000,,,,0.000000,4.000000,4.000000,4.000000,4.000000,4.000000,4.000000,4.000000,4.000000,4.000000,4.000000,4.000000,4.000000,4.000000,4.000000,100.000000,,,,,,,,,,,,,,,,,,,,,,,,,,,,
1703490712.301022,1703490712.301767,40.000000,0.000000,4377.436035,4359.102539,4400.897461,4413.077148,4380.000000,4447.563965,4341.538574,4332.692383,4350.000000,4365.000000,4579.487305,4526.025879,4485.256348,4497.179688,0.000000,4.000000,89.000000,,,,0.000000,4.000000,4.000000,4.000000,4.000000,4.000000,4.000000,4.000000,4.000000,4.000000,4.000000,4.000000,4.000000,4.000000,4.000000,100.000000,,,,,,,,,,,,,,,,,10.000000,0.000000,0.694076,-0.073608,-0.692017,-0.184265,0.989379,0.149432,0.036137,-19.797573,-34.352425,64.612236
1703490712.308830,1703490712.309675,41.000000,0.000000,4371.922852,4356.794922,4403.077148,4411.666504,4377.563965,4435.000000,4341.410156,4326.538574,4345.769043,4358.717773,4572.307617,4523.077148,4480.256348,4492.436035,0.000000,4.000000,89.000000,,,,0.000000,4.000000,4.000000,4.000000,4.000000,4.000000,4.000000,4.000000,4.000000,4.000000,4.000000,4.000000,4.000000,4.000000,4.000000,100.000000,,,,,,,,,,,,,,,,,,,,,,,,,,,,
1703490712.316638,1703490712.317483,42.000000,0.000000,4382.179688,4356.025879,4409.871582,4409.871582,4376.666504,4429.743652,4343.846191,4324.358887,4344.871582,4359.102539,4579.358887,4525.128418,4480.897461,4499.487305,0.000000,4.000000,89.000000,,,,0.000000,4.000000,4.000000,4.000000,4.000000,4.000000,4.000000,4.000000,4.000000,4.000000,4.000000,4.000000,4.000000,4.000000,4.000000,100.000000,,,,,,,,,,,,,,,,,,,,,,,,,,,,
1703490712.324446,1703490712.325390,43.000000,0.000000,4392.563965,4359.358887,4415.897461,4415.769043,4374.358887,4425.128418,4343.974121,4328.846191,4348.589844,4360.769043,4587.179688,4529.743652,4485.000000,4508.205078,0.000000,4.000000,89.000000,,,,0.000000,4.000000,4.000000,4.000000,4.000000,4.000000,4.000000,4.000000,4.000000,4.000000,4.000000,4.000000,4.000000,4.000000,4.000000,100.000000,,,,,,,,,,,,,,,,,,,,,,,,,,,,
1703490712.332254,1703490712.333198,44.000000,0.000000,4387.692383,4364.871582,4415.384766,4421.282227,4374.615234,4413.717773,4337.692383,4328.077148,4352.692383,4362.179688,4583.077148,4531.153809,4486.794922,4502.436035,0.000000,4.000000,89.000000,,,,0.000000,4.000000,4.000000,4.000000,4.000000,4.000000,4.000000,4.000000,4.000000,4.000000,4.000000,4.000000,4.000000,4.000000,4.000000,100.000000,,,,,,,,,,,,,,,,,11.000000,0.000000,0.694098,-0.073669,-0.691956,-0.184387,0.980100,0.143084,0.023929,-19.867815,-34.383850,64.651016
1703490712.340062,1703490712.341106,45.000000,0.000000,4375.641113,4362.692383,4406.538574,4416.538574,4375.128418,4411.922852,4335.256348,4324.743652,4353.461426,4363.589844,4575.769043,4525.384766,4479.230957,4492.436035,0.000000,4.000000,89.000000,,,,0.000000,4.000000,4.000000,4.000000,4.000000,4.000000,4.000000,4.000000,4.000000,4.000000,4.000000,4.000000,4.000000,4.000000,4.000000,100.000000,,,,,,,,,,,,,,,,,,,,,,,,,,,,
1703490712.347870,1703490712.348914,46.000000,0.000000,4367.563965,4357.436035,4397.307617,4408.589844,4376.282227,4421.410156,4338.461426,4325.897461,4355.897461,4360.897461,4573.333496,4517.436035,4473.205078,4496.153809,0.000000,4.000000,89.000000,,,,0.000000,4.000000,4.000000,4.000000,4.000000,4.000000,4.000000,4.000000,4.000000,4.000000,4.000000,4.000000,4.000000,4.000000,4.000000,100.000000,,,,,,,,,,,,,,,,,,,,,,,,,,,,
1703490712.355678,1703490712.356622,47.000000,0.000000,4368.205078,4356.794922,4395.000000,4404.743652,4376.282227,4421.025879,4340.769043,4327.307617,4359.487305,4353.974121,4571.153809,4516.153809,4475.512695,4496.666504,0.000000,4.000000,89.000000,,,,0.000000,4.000000,4.000000,4.000000,4.000000,4.000000,4.000000,4.000000,4.000000,4.000000,4.000000,4.000000,4.000000,4.000000,4.000000,100.000000,,,,,,,,,,,,,,,,,,,,,,,,,,,,
1703490712.363486,1703490712.364430,48.000000,0.000000,4370.512695,4356.025879,4391.410156,4401.794922,4374.615234,4419.230957,4345.897461,4326.794922,4356.794922,4347.307617,4562.820313,4516.922852,4470.256348,4483.461426,0.000000,4.000000,89.000000,,,,0.000000,4.000000,4.000000,4.000000,4.000000,4.000000,4.000000,4.000000,4.000000,4.000000,4.000000,4.000000,4.000000,4.000000,4.000000,100.000000,,,,,,,,,,,,,,,,,12.000000,0.000000,0.694113,-0.073486,-0.691895,-0.184631,0.983518,0.141131,0.023929,-19.931034,-34.245464,64.519249
1703490712.371294,1703490712.372138,49.000000,0.000000,4364.615234,4352.692383,4386.666504,4399.102539,4373.846191,4427.948730,4356.153809,4326.794922,4353.461426,4345.897461,4558.333496,4514.743652,4460.128418,4478.846191,0.000000,4.000000,89.000000,,,,0.000000,4.000000,4.000000,4.000000,4.000000,4.000000,4.000000,4.000000,4.000000,4.000000,4.000000,4.000000,4.000000,4.000000,4.000000,100.000000,,,,,,,,,,,,,,,,,,,,,,,,,,,,
1703490712.379103,1703490712.380046,50.000000,0.000000,4360.897461,4353.717773,4388.974121,4400.256348,4372.692383,4432.948730,4363.589844,4327.051270,4352.179688,4347.307617,4561.794922,4515.384766,4460.128418,4484.871582,0.000000,4.000000,89.000000,,,,0.000000,4.000000,4.000000,4.000000,4.000000,4.000000,4.000000,4.000000,4.000000,4.000000,4.000000,4.000000,4.000000,4.000000,4.000000,100.000000,,,,,,,,,,,,,,,,,,,,,,,,,,,,
1703490712.386911,1703490712.387854,51.000000,0.000000,4368.205078,4356.922852,4396.025879,4403.461426,4372.436035,4427.820313,4364.358887,4328.205078,4348.974121,4346.794922,4569.487305,4518.589844,4468.974121,4490.897461,0.000000,4.000000,89.000000,,,,0.000000,4.000000,4.000000,4.000000,4.000000,4.000000,4.000000,4.000000,4.000000,4.000000,4.000000,4.000000,4.000000,4.000000,4.000000,100.000000,,,,,,,,,,,,,,,,,,,,,,,,,,,,
1703490712.394719,1703490712.395662,52.000000,0.000000,4375.641113,4357.179688,4403.589844,4406.666504,4373.077148,4423.974121,4366.666504,4331.794922,4347.051270,4347.820313,4575.769043,4522.307617,4478.333496,4498.717773,0.000000,4.000000,89.000000,,,,0.000000,4.000000,4.000000,4.000000,4.000000,4.000000,4.000000,4.000000,4.000000,4.000000,4.000000,4.000000,4.000000,4.000000,4.000000,100.000000,,,,,,,,,,,,,,,,,13.000000,0.000000,0.694138,-0.073364,-0.691833,-0.184814,0.981565,0.146014,0.027835,-20.037930,-34.370918,64.433990
1703490712.402527,1703490712.403370,53.000000,0.000000,4378.974121,4358.846191,4408.461426,4410.000000,4373.205078,4422.179688,4370.769043,4333.461426,4351.410156,4357.051270,4580.384766,4528.974121,4485.384766,4508.846191,0.000000,4.000000,89.000000,,,,0.000000,4.000000,4.000000,4.000000,4.000000,4.000000,4.000000,4.000000,4.000000,4.000000,4.000000,4.000000,4.000000,4.000000,4.000000,100.000000,,,,,,,,,,,,,,,,,,,,,,,,,,,,
1703490712.410335,1703490712.411178,54.000000,0.000000,4383.717773,4362.179688,4409.230957,4411.282227,4370.641113,4414.358887,4367.692383,4329.102539,4354.615234,4364.358887,4583.717773,4531.282227,4483.077148,4505.000000,0.000000,4.000000,89.000000,,,,0.000000,4.000000,4.000000,4.000000,4.000000,4.000000,4.000000,4.000000,4.000000,4.000000,4.000000,4.000000,4.000000,4.000000,4.000000,100.000000,,,,,,,,,,,,,,,,,,,,,,,,,,,,
1703490712.418143,1703490712.418886,55.000000,0.000000,4377.307617,4358.461426,4403.974121,4406.922852,4363.461426,4402.179688,4358.205078,4324.615234,4349.230957,4355.256348,4574.615234,4523.589844,4469.743652,4487.307617,0.000000,4.000000,89.000000,,,,0.000000,4.000000,4.000000,4.000000,4.000000,4.000000,4.000000,4.000000,4.000000,4.000000,4.000000,4.000000,4.000000,4.000000,4.000000,100.000000,,,,,,,,,,,,,,,,,,,,,,,,,,,,
1703490712.425951,1703490712.426694,56.000000,0.000000,4364.358887,4352.179688,4396.282227,4401.922852,4360.256348,4397.563965,4354.230957,4326.153809,4349.743652,4346.794922,4563.846191,4517.051270,4463.974121,4486.666504,0.000000,4.000000,89.000000,,,,0.000000,4.000000,4.000000,4.000000,4.000000,4.000000,4.000000,4.000000,4.000000,4.000000,4.000000,4.000000,4.000000,4.000000,4.000000,100.000000,,,,,,,,,,,,,,,,,14.000000,0.000000,0.694163,-0.073242,-0.691772,-0.184998,0.991332,0.147967,0.021487,-19.967470,-34.433826,64.457253
1703490712.433759,1703490712.434402,57.000000,0.000000,4365.512695,4351.922852,4392.436035,4401.794922,4362.051270,4399.871582,4356.794922,4327.436035,4356.410156,4352.307617,4567.692383,4517.563965,4467.948730,4497.563965,0.000000,4.000000,89.000000,,,,0.000000,4.000000,4.000000,4.000000,4.000000,4.000000,4.000000,4.000000,4.000000,4.000000,4.000000,4.000000,4.000000,4.000000,4.000000,100.000000,,,,,,,,,,,,,,,,,,,,,,,,,,,,
1703490712.441567,1703490712.442210,58.000000,0.000000,4368.974121,4349.230957,4390.641113,4396.282227,4361.282227,4395.897461,4354.358887,4325.000000,4353.205078,4349.743652,4566.794922,4517.307617,4460.641113,4487.692383,0.000000,4.000000,89.000000,,,,0.000000,4.000000,4.000000,4.000000,4.000000,4.000000,4.000000,4.000000,4.000000,4.000000,4.000000,4.000000,4.000000,4.000000,4.000000,100.000000,,,,,,,,,,,,,,,,,,,,,,,,,,,,
1703490712.449375,1703490712.449918,59.000000,0.000000,4362.820313,4347.307617,4388.205078,4389.487305,4364.102539,4395.128418,4353.717773,4326.282227,4348.846191,4342.179688,4558.717773,4514.871582,4453.974121,4472.820313,0.000000,4.000000,89.000000,,,,0.000000,4.000000,4.000000,4.000000,4.000000,4.000000,4.000000,4.000000,4.000000,4.000000,4.000000,4.000000,4.000000,4.000000,4.000000,100.000000,,,,,,,,,,,,,,,,,,,,,,,,,,,,
1703490712.457183,1703490712.457726,60.000000,0.000000,4358.461426,4353.461426,4387.179688,4392.820313,4370.256348,4409.615234,4363.333496,4331.025879,4355.000000,4349.871582,4565.769043,4516.922852,4465.897461,4480.769043,0.000000,4.000000,89.000000,,,,0.000000,4.000000,4.000000,4.000000,4.000000,4.000000,4.000000,4.000000,4.000000,4.000000,4.000000,4.000000,4.000000,4.000000,4.000000,100.000000,,,,,,,,,,,,,,,,,15.000000,0.000000,0.694066,-0.073120,-0.691833,-0.185181,0.967892,0.142107,0.027347,-20.037390,-34.357109,64.528198
1703490712.464991,1703490712.465434,61.000000,0.000000,4359.230957,4353.717773,4387.820313,4393.846191,4365.384766,4415.000000,4367.948730,4330.512695,4359.230957,4354.871582,4571.794922,4518.333496,4467.179688,4490.512695,0.000000,4.000000,89.000000,,,,0.000000,4.000000,4.000000,4.000000,4.000000,4.000000,4.000000,4.000000,4.000000,4.000000,4.000000,4.000000,4.000000,4.000000,4.000000,100.000000,,,,,,,,,,,,,,,,,,,,,,,,,,,,
1703490712.472799,1703490712.473242,62.000000,0.000000,4360.512695,4346.153809,4386.538574,4387.692383,4357.692383,4404.230957,4366.025879,4326.538574,4351.922852,4343.974121,4561.666504,4514.743652,4450.512695,4485.000000,0.000000,4.000000,89.000000,,,,0.000000,4.000000,4.000000,4.000000,4.000000,4.000000,4.000000,4.000000,4.000000,4.000000,4.000000,4.000000,4.000000,4.000000,4.000000,100.000000,,,,,,,,,,,,,,,,,,,,,,,,,,,,
1703490712.480607,1703490712.480950,63.000000,0.000000,4364.230957,4346.025879,4390.384766,4386.922852,4357.307617,4397.948730,4367.563965,4328.205078,4346.025879,4337.436035,4558.333496,4517.948730,4448.974121,4483.846191,0.000000,4.000000,89.000000,,,,0.000000,4.000000,4.000000,4.000000,4.000000,4.000000,4.000000,4.000000,4.000000,4.000000,4.000000,4.000000,4.000000,4.000000,4.000000,100.000000,,,,,,,,,,,,,,,,,,,,,,,,,,,,
1703490712.488415,1703490712.488858,64.000000,0.000000,4364.230957,4347.692383,4399.743652,4393.461426,4354.487305,4397.436035,4370.384766,4330.000000,4345.256348,4339.615234,4564.487305,4524.102539,4460.897461,4490.641113,4933.000000,4.000000,89.000000,,,,0.000000,4.000000,4.000000,4.000000,4.000000,4.000000,4.000000,4.000000,4.000000,4.000000,4.000000,4.000000,4.000000,4.000000,4.000000,100.000000,,,,,,,,,,,,,,,,,16.000000,0.000000,0.694095,-0.073120,-0.691772,-0.185303,0.978635,0.147479,0.033207,-19.966984,-34.454735,64.425377
1703490712.496223,1703490712.496666,65.000000,0.000000,4363.974121,4343.717773,4402.307617,4395.641113,4347.948730,4391.538574,4370.641113,4326.410156,4345.128418,4339.358887,4568.077148,4523.333496,4464.230957,4493.974121,5659.000000,4.000000,89.000000,,,,0.000000,4.000000,4.000000,4.000000,4.000000,4.000000,4.000000,4.000000,4.000000,4.000000,4.000000,4.000000,4.000000,4.000000,4.000000,100.000000,,,,,,,,,,,,,,,,,,,,,,,,,,,,
1703490712.504031,1703490712.504574,66.000000,0.000000,4367.179688,4344.487305,4399.358887,4389.230957,4342.179688,4378.077148,4364.615234,4323.717773,4342.563965,4334.230957,4564.743652,4522.563965,4460.128418,4489.615234,5332.000000,4.000000,89.000000,,,,0.000000,4.000000,4.000000,4.000000,4.000000,4.000000,4.000000,4.000000,4.000000,4.000000,4.000000,4.000000,4.000000,4.000000,4.000000,100.000000,,,,,,,,,,,,,,,,,,,,,,,,,,,,
1703490712.511840,1703490712.512382,67.000000,0.000000,4359.102539,4344.743652,4391.410156,4383.205078,4337.051270,4364.358887,4351.153809,4325.128418,4338.589844,4328.717773,4555.384766,4518.077148,4453.333496,4480.256348,5516.000000,4.000000,89.000000,,,,0.000000,4.000000,4.000000,4.000000,4.000000,4.000000,4.000000,4.000000,4.000000,4.000000,4.000000,4.000000,4.000000,4.000000,4.000000,100.000000,,,,,,,,,,,,,,,,,,,,,,,,,,,,
1703490712.519647,1703490712.520290,68.000000,0.000000,4346.666504,4336.025879,4379.871582,4378.846191,4336.153809,4355.897461,4343.846191,4318.846191,4335.128418,4323.589844,4545.641113,4508.205078,4440.000000,4471.538574,5298.000000,4.000000,89.000000,,,,0.000000,4.000000,4.000000,4.000000,4.000000,4.000000,4.000000,4.000000,4.000000,4.000000,4.000000,4.000000,4.000000,4.000000,4.000000,100.000000,,,,,,,,,,,,,,,,,17.000000,0.000000,0.694088,-0.073181,-0.691772,-0.185303,0.987914,0.144061,0.032719,-19.803619,-34.475925,64.432838
1703490712.527455,1703490712.528098,69.000000,0.000000,4344.871582,4330.256348,4374.102539,4371.794922,4335.512695,4353.974121,4345.384766,4310.128418,4333.461426,4314.102539,4537.179688,4503.974121,4427.692383,4463.461426,5110.000000,4.000000,89.000000,,,,0.000000,4.000000,4.000000,4.000000,4.000000,4.000000,4.000000,4.000000,4.000000,4.000000,4.000000,4.000000,4.000000,4.000000,4.000000,100.000000,,,,,,,,,,,,,,,,,,,,,,,,,,,,
1703490712.535264,1703490712.535806,70.000000,0.000000,4344.615234,4333.717773,4371.025879,4369.358887,4336.794922,4360.512695,4343.717773,4311.282227,4332.563965,4303.461426,4526.153809,4504.102539,4420.897461,4450.769043,3513.000000,4.000000,89.000000,,,,0.000000,4.000000,4.000000,4.000000,4.000000,4.000000,4.000000,4.000000,4.000000,4.000000,4.000000,4.000000,4.000000,4.000000,4.000000,100.000000,,,,,,,,,,,,,,,,,,,,,,,,,,,,
1703490712.543072,1703490712.543614,71.000000,0.000000,4334.615234,4331.794922,4362.179688,4371.922852,4340.641113,4368.846191,4342.948730,4315.000000,4330.000000,4299.487305,4514.230957,4497.948730,4407.436035,4440.897461,2818.000000,4.000000,89.000000,,,,0.000000,4.000000,4.000000,4.000000,4.000000,4.000000,4.000000,4.000000,4.000000,4.000000,4.000000,4.000000,4.000000,4.000000,4.000000,100.000000,1.000000,41.666668,4.000000,4.000000,3.000000,4.000000,3.000000,1.000000,1.000000,3.000000,4.000000,3.000000,4.000000,4.000000,4.000000,4.000000,,,,,,,,,,,,
1703490712.550880,1703490712.551322,72.000000,0.000000,4328.717773,4320.641113,4353.717773,4366.153809,4337.051270,4367.692383,4346.794922,4313.077148,4327.563965,4297.692383,4508.974121,4489.487305,4396.025879,4438.333496,4270.000000,4.000000,89.000000,,,,0.000000,4.000000,4.000000,4.000000,4.000000,4.000000,4.000000,4.000000,4.000000,4.000000,4.000000,4.000000,4.000000,4.000000,4.000000,100.000000,,,,,,,,,,,,,,,,,18.000000,0.000000,0.694088,-0.073181,-0.691772,-0.185303,0.965450,0.149921,0.033207,-19.873257,-34.378334,64.406219
1703490712.558688,1703490712.559130,73.000000,0.000000,4333.717773,4316.410156,4354.358887,4360.641113,4330.769043,4363.205078,4349.871582,4310.641113,4325.128418,4292.307617,4512.179688,4489.743652,4403.077148,4438.461426,5467.000000,4.000000,89.000000,,,,0.000000,4.000000,4.000000,4.000000,4.000000,4.000000,4.000000,4.000000,4.000000,4.000000,4.000000,4.000000,4.000000,4.000000,4.000000,100.000000,,,,,,,,,,,,,,,,,,,,,,,,,,,,
1703490712.566496,1703490712.566838,74.000000,0.000000,4330.769043,4319.615234,4355.000000,4364.487305,4329.871582,4368.717773,4354.871582,4313.589844,4321.538574,4292.692383,4518.205078,4496.153809,4410.897461,4441.794922,6008.000000,4.000000,89.000000,,,,0.000000,4.000000,4.000000,4.000000,4.000000,4.000000,4.000000,4.000000,4.000000,4.000000,4.000000,4.000000,4.000000,4.000000,4.000000,100.000000,,,,,,,,,,,,,,,,,,,,,,,,,,,,
1703490712.574304,1703490712.574646,75.000000,0.000000,4324.615234,4321.410156,4353.589844,4366.282227,4327.307617,4370.128418,4358.205078,4315.512695,4320.128418,4299.102539,4520.000000,4498.974121,4409.230957,4446.025879,5667.000000,4.000000,89.000000,,,,0.000000,4.000000,4.000000,4.000000,4.000000,4.000000,4.000000,4.000000,4.000000,4.000000,4.000000,4.000000,4.000000,4.000000,4.000000,100.000000,,,,,,,,,,,,,,,,,,,,,,,,,,,,
1703490712.582112,1703490712.582354,76.000000,0.000000,4330.256348,4317.948730,4355.384766,4359.230957,4316.922852,4354.358887,4353.717773,4313.589844,4320.384766,4298.205078,4522.051270,4496.794922,4411.282227,4444.102539,5920.000000,4.000000,89.000000,,,,0.000000,4.000000,4.000000,4.000000,4.000000,4.000000,4.000000,4.000000,4.000000,4.000000,4.000000,4.000000,4.000000,4.000000,4.000000,100.000000,,,,,,,,,,,,,,,,,19.000000,0.000000,0.694116,-0.073181,-0.691711,-0.185425,0.987914,0.137712,0.022952,-19.935932,-34.407166,64.465599
1703490712.589920,1703490712.590162,77.000000,0.000000,4336.282227,4313.333496,4356.282227,4350.897461,4305.897461,4335.897461,4347.179688,4311.410156,4319.102539,4297.436035,4528.717773,4498.717773,4418.333496,4445.769043,3301.000000,4.000000,89.000000,,,,0.000000,4.000000,4.000000,4.000000,4.000000,4.000000,4.000000,4.000000,4.000000,4.000000,4.000000,4.000000,4.000000,4.000000,4.000000,100.000000,,,,,,,,,,,,,,,,,,,,,,,,,,,,
1703490712.597728,1703490712.597870,78.000000,0.000000,4330.641113,4312.307617,4352.948730,4350.000000,4299.743652,4323.589844,4342.051270,4311.282227,4319.615234,4303.205078,4528.974121,4502.948730,4422.436035,4453.333496,6008.000000,4.000000,89.000000,,,,0.000000,4.000000,4.000000,4.000000,4.000000,4.000000,4.000000,4.000000,4.000000,4.000000,4.000000,4.000000,4.000000,4.000000,4.000000,100.000000,,,,,,,,,,,,,,,,,,,,,,,,,,,,
1703490712.605536,1703490712.605678,79.000000,0.000000,4327.820313,4312.820313,4352.820313,4353.717773,4301.794922,4317.563965,4337.820313,4311.666504,4323.846191,4303.717773,4524.743652,4500.512695,4421.794922,4449.102539,5667.000000,4.000000,89.000000,,,,0.000000,4.000000,4.000000,4.000000,4.000000,4.000000,4.000000,4.000000,4.000000,4.000000,4.000000,4.000000,4.000000,4.000000,4.000000,100.000000,,,,,,,,,,,,,,,,,,,,,,,,,,,,
1703490712.613344,1703490712.613386,80.000000,0.000000,4331.282227,4305.641113,4353.077148,4351.025879,4301.025879,4314.102539,4334.102539,4310.769043,4325.256348,4295.769043,4518.461426,4492.692383,4410.256348,4440.256348,5920.000000,4.000000,89.000000,,,,0.000000,4.000000,4.000000,4.000000,4.000000,4.000000,4.000000,4.000000,4.000000,4.000000,4.000000,4.000000,4.000000,4.000000,4.000000,100.000000,,,,,,,,,,,,,,,,,20.000000,0.000000,0.694135,-0.073120,-0.691650,-0.185608,0.981565,0.141131,0.023929,-19.975672,-34.466450,64.402374
1703490712.621152,1703490712.621194,81.000000,0.000000,4328.333496,4298.717773,4346.794922,4343.461426,4294.230957,4309.871582,4329.615234,4308.974121,4319.743652,4282.307617,4504.230957,4487.692383,4391.538574,4436.025879,3301.000000,4.000000,89.000000,,,,0.000000,4.000000,4.000000,4.000000,4.000000,4.000000,4.000000,4.000000,4.000000,4.000000,4.000000,4.000000,4.000000,4.000000,4.000000,100.000000,,,,,,,,,,,,,,,,,,,,,,,,,,,,
1703490712.628960,1703490712.628902,82.000000,0.000000,4321.666504,4304.487305,4342.436035,4343.461426,4298.846191,4315.897461,4332.051270,4307.051270,4316.025879,4275.000000,4496.282227,4488.974121,4384.230957,4428.589844,6008.000000,4.000000,89.000000,,,,0.000000,4.000000,4.000000,4.000000,4.000000,4.000000,4.000000,4.000000,4.000000,4.000000,4.000000,4.000000,4.000000,4.000000,4.000000,100.000000,,,,,,,,,,,,,,,,,,,,,,,,,,,,
1703490712.636768,1703490712.636710,83.000000,0.000000,4316.153809,4310.512695,4344.230957,4347.692383,4305.128418,4331.538574,4340.128418,4310.128418,4320.512695,4280.512695,4503.461426,4487.307617,4389.615234,4423.205078,5667.000000,4.000000,89.000000,,,,0.000000,4.000000,4.000000,4.000000,4.000000,4.000000,4.000000,4.000000,4.000000,4.000000,4.000000,4.000000,4.000000,4.000000,4.000000,100.000000,,,,,,,,,,,,,,,,,,,,,,,,,,,,
1703490712.644576,1703490712.644418,84.000000,0.000000,4312.948730,4301.410156,4339.230957,4343.846191,4299.358887,4333.077148,4342.051270,4313.077148,4317.436035,4277.692383,4503.461426,4483.589844,4387.179688,4425.641113,5920.000000,4.000000,89.000000,,,,0.000000,4.000000,4.000000,4.000000,4.000000,4.000000,4.000000,4.000000,4.000000,4.000000,4.000000,4.000000,4.000000,4.000000,4.000000,100.000000,,,,,,,,,,,,,,,,,21.000000,0.000000,0.694064,-0.073059,-0.691711,-0.185669,0.980100,0.141131,0.036626,-19.828104,-34.469807,64.428802
1703490712.652384,1703490712.652326,85.000000,0.000000,4313.077148,4289.871582,4332.051270,4333.974121,4298.205078,4325.769043,4343.205078,4311.025879,4307.179688,4266.794922,4497.179688,4483.333496,4381.666504,4428.461426,3301.000000,4.000000,89.000000,,,,0.000000,4.000000,4.000000,4.000000,4.000000,4.000000,4.000000,4.000000,4.000000,4.000000,4.000000,4.000000,4.000000,4.000000,4.000000,100.000000,,,,,,,,,,,,,,,,,,,,,,,,,,,,
1703490712.660192,1703490712.660134,86.000000,0.000000,4315.897461,4291.794922,4332.948730,4330.641113,4302.436035,4328.589844,4350.641113,4306.666504,4303.717773,4267.948730,4500.384766,4484.102539,4383.846191,4422.563965,6008.000000,4.000000,89.000000,,,,0.000000,4.000000,4.000000,4.000000,4.000000,4.000000,4.000000,4.000000,4.000000,4.000000,4.000000,4.000000,4.000000,4.000000,4.000000,100.000000,,,,,,,,,,,,,,,,,,,,,,,,,,,,
1703490712.668001,1703490712.668042,87.000000,0.000000,4321.922852,4299.487305,4337.820313,4335.769043,4298.205078,4326.025879,4351.922852,4307.436035,4303.589844,4273.461426,4506.410156,4485.512695,4389.230957,4421.282227,5667.000000,4.000000,89.000000,,,,0.000000,4.000000,4.000000,4.000000,4.000000,4.000000,4.000000,4.000000,4.000000,4.000000,4.000000,4.000000,4.000000,4.000000,4.000000,100.000000,,,,,,,,,,,,,,,,,,,,,,,,,,,,
1703490712.675809,1703490712.675850,88.000000,0.000000,4324.743652,4299.487305,4340.384766,4339.615234,4293.333496,4313.205078,4346.025879,4309.230957,4303.846191,4276.666504,4511.666504,4486.538574,4395.384766,4426.153809,5920.000000,4.000000,89.000000,,,,0.000000,4.000000,4.000000,4.000000,4.000000,4.000000,4.000000,4.000000,4.000000,4.000000,4.000000,4.000000,4.000000,4.000000,4.000000,100.000000,,,,,,,,,,,,,,,,,22.000000,0.000000,0.694122,-0.073242,-0.691650,-0.185608,0.994750,0.154316,0.020510,-19.945293,-34.289490,64.269257
1703490712.683617,1703490712.683758,89.000000,0.000000,4317.436035,4291.025879,4336.025879,4337.307617,4292.563965,4302.948730,4342.051270,4303.717773,4304.871582,4279.615234,4512.692383,4485.384766,4393.974121,4417.692383,3301.000000,4.000000,89.000000,,,,0.000000,4.000000,4.000000,4.000000,4.000000,4.000000,4.000000,4.000000,4.000000,4.000000,4.000000,4.000000,4.000000,4.000000,4.000000,100.000000,,,,,,,,,,,,,,,,,,,,,,,,,,,,
1703490712.691425,1703490712.691566,90.000000,0.000000,4313.333496,4288.077148,4332.179688,4334.358887,4288.974121,4292.307617,4340.512695,4300.641113,4306.538574,4279.358887,4505.641113,4483.589844,4381.153809,4406.794922,6008.000000,4.000000,89.000000,,,,0.000000,4.000000,4.000000,4.000000,4.000000,4.000000,4.000000,4.000000,4.000000,4.000000,4.000000,4.000000,4.000000,4.000000,4.000000,100.000000,,,,,,,,,,,,,,,,,,,,,,,,,,,,
1703490712.699233,1703490712.699474,91.000000,0.000000,4319.102539,4294.871582,4335.769043,4332.692383,4285.512695,4277.179688,4334.743652,4300.512695,4308.205078,4272.307617,4499.743652,4481.538574,4373.589844,4410.128418,5667.000000,4.000000,89.000000,,,,0.000000,4.000000,4.000000,4.000000,4.000000,4.000000,4.000000,4.000000,4.000000,4.000000,4.000000,4.000000,4.000000,4.000000,4.000000,100.000000,,,,,,,,,,,,,,,,,,,,,,,,,,,,
1703490712.707041,1703490712.707282,92.000000,0.000000,4318.333496,4298.077148,4338.589844,4333.846191,4283.717773,4271.666504,4329.487305,4297.948730,4309.871582,4268.077148,4501.794922,4482.179688,4375.384766,4413.077148,5920.000000,4.000000,89.000000,,,,0.000000,4.000000,4.000000,4.000000,4.000000,4.000000,4.000000,4.000000,4.000000,4.000000,4.000000,4.000000,4.000000,4.000000,4.000000,100.000000,,,,,,,,,,,,,,,,,23.000000,0.000000,0.694143,-0.073303,-0.691589,-0.185730,0.976682,0.142107,0.032230,-19.917431,-34.327209,64.292328
1703490712.714849,1703490712.715190,93.000000,0.000000,4310.897461,4293.333496,4333.589844,4334.230957,4285.641113,4283.974121,4330.512695,4298.974121,4311.922852,4269.615234,4501.025879,4482.307617,4371.794922,4408.333496,3301.000000,4.000000,89.000000,,,,0.000000,4.000000,4.000000,4.000000,4.000000,4.000000,4.000000,4.000000,4.000000,4.000000,4.000000,4.000000,4.000000,4.000000,4.000000,100.000000,,,,,,,,,,,,,,,,,,,,,,,,,,,,
1703490712.722657,1703490712.722997,94.000000,0.000000,4305.512695,4281.794922,4321.922852,4323.461426,4287.179688,4288.717773,4328.077148,4299.743652,4305.897461,4258.974121,4487.051270,4471.922852,4356.794922,4401.282227,6008.000000,4.000000,89.000000,,,,0.000000,4.000000,4.000000,4.000000,4.000000,4.000000,4.000000,4.000000,4.000000,4.000000,4.000000,4.000000,4.000000,4.000000,4.000000,100.000000,,,,,,,,,,,,,,,,,,,,,,,,,,,,
1703490712.730465,1703490712.730706,95.000000,0.000000,4296.153809,4270.000000,4309.102539,4305.897461,4281.794922,4282.563965,4324.743652,4295.512695,4291.410156,4237.948730,4471.282227,4463.461426,4343.077148,4388.717773,5667.000000,4.000000,89.000000,,,,0.000000,4.000000,4.000000,4.000000,4.000000,4.000000,4.000000,4.000000,4.000000,4.000000,4.000000,4.000000,4.000000,4.000000,4.000000,100.000000,,,,,,,,,,,,,,,,,,,,,,,,,,,,
1703490712.738273,1703490712.738514,96.000000,0.000000,4289.358887,4267.563965,4306.025879,4300.897461,4281.282227,4294.615234,4334.871582,4296.025879,4286.025879,4237.563965,4477.563965,4469.358887,4350.384766,4388.333496,5920.000000,4.000000,89.000000,,,,0.000000,4.000000,4.000000,4.000000,4.000000,4.000000,4.000000,4.000000,4.000000,4.000000,4.000000,4.000000,4.000000,4.000000,4.000000,100.000000,,,,,,,,,,,,,,,,,24.000000,0.000000,0.694127,-0.073303,-0.691589,-0.185791,0.974728,0.140642,0.022952,-19.975689,-34.327820,64.363098
1703490712.746081,1703490712.746222,97.000000,0.000000,4292.179688,4273.846191,4310.769043,4303.205078,4284.615234,4305.641113,4347.179688,4298.205078,4288.205078,4249.615234,4489.102539,4471.153809,4361.538574,4397.820313,3301.000000,4.000000,89.000000,,,,0.000000,4.000000,4.000000,4.000000,4.000000,4.000000,4.000000,4.000000,4.000000,4.000000,4.000000,4.000000,4.000000,4.000000,4.000000,100.000000,,,,,,,,,,,,,,,,,,,,,,,,,,,,
1703490712.753889,1703490712.754030,98.000000,0.000000,4296.025879,4272.948730,4308.846191,4303.717773,4280.384766,4293.717773,4345.128418,4292.820313,4280.897461,4245.897461,4482.051270,4467.307617,4352.692383,4395.256348,6008.000000,4.000000,89.000000,,,,0.000000,4.000000,4.000000,4.000000,4.000000,4.000000,4.000000,4.000000,4.000000,4.000000,4.000000,4.000000,4.000000,4.000000,4.000000,100.000000,,,,,,,,,,,,,,,,,,,,,,,,,,,,
1703490712.761697,1703490712.761738,99.000000,0.000000,4299.102539,4271.153809,4311.666504,4312.179688,4279.358887,4286.538574,4340.897461,4293.974121,4277.692383,4247.563965,4482.948730,4472.948730,4352.948730,4399.615234,5667.000000,4.000000,89.000000,,,,0.000000,4.000000,4.000000,4.000000,4.000000,4.000000,4.000000,4.000000,4.000000,4.000000,4.000000,4.000000,4.000000,4.000000,4.000000,100.000000,,,,,,,,,,,,,,,,,,,,,,,,,,,,
1703490712.769505,1703490712.769546,100.000000,0.000000,4300.256348,4276.538574,4320.384766,4315.897461,4277.436035,4282.948730,4341.153809,4298.717773,4289.487305,4259.871582,4492.948730,4476.666504,4363.846191,4412.179688,5920.000000,4.000000,89.000000,,,,0.000000,4.000000,4.000000,4.000000,4.000000,4.000000,4.000000,4.000000,4.000000,4.000000,4.000000,4.000000,4.000000,4.000000,4.000000,100.000000,,,,,,,,,,,,,,,,,25.000000,0.000000,0.694114,-0.073120,-0.691589,-0.185913,0.986937,0.146991,0.037602,-19.811453,-34.328373,64.376785
1703490712.777313,1703490712.777254,101.000000,0.000000,4303.333496,4278.205078,4322.563965,4311.538574,4267.307617,4267.307617,4337.436035,4296.153809,4300.128418,4263.461426,4492.820313,4474.358887,4362.948730,4417.051270,3301.000000,4.000000,89.000000,,,,0.000000,4.000000,4.000000,4.000000,4.000000,4.000000,4.000000,4.000000,4.000000,4.000000,4.000000,4.000000,4.000000,4.000000,4.000000,100.000000,,,,,,,,,,,,,,,,,,,,,,,,,,,,
1703490712.785121,1703490712.785062,102.000000,0.000000,4310.769043,4281.794922,4325.769043,4318.974121,4267.436035,4259.743652,4332.820313,4296.538574,4305.256348,4272.051270,4498.205078,4480.128418,4365.512695,4417.051270,6008.000000,4.000000,89.000000,,,,0.000000,4.000000,4.000000,4.000000,4.000000,4.000000,4.000000,4.000000,4.000000,4.000000,4.000000,4.000000,4.000000,4.000000,4.000000,100.000000,,,,,,,,,,,,,,,,,,,,,,,,,,,,
1703490712.792929,1703490712.792770,103.000000,0.000000,4307.179688,4285.512695,4326.025879,4321.410156,4271.025879,4256.410156,4326.282227,4297.820313,4304.358887,4277.179688,4502.307617,4484.102539,4368.589844,4412.179688,5667.000000,4.000000,89.000000,,,,0.000000,4.000000,4.000000,4.000000,4.000000,4.000000,4.000000,4.000000,4.000000,4.000000,4.000000,4.000000,4.000000,4.000000,4.000000,100.000000,,,,,,,,,,,,,,,,,,,,,,,,,,,,
1703490712.800738,1703490712.800578,104.000000,0.000000,4302.179688,4281.153809,4322.051270,4311.922852,4265.512695,4245.641113,4318.333496,4291.538574,4297.563965,4263.333496,4489.743652,4472.563965,4359.102539,4407.563965,5920.000000,4.000000,89.000000,,,,0.000000,4.000000,4.000000,4.000000,4.000000,4.000000,4.000000,4.000000,4.000000,4.000000,4.000000,4.000000,4.000000,4.000000,4.000000,100.000000,,,,,,,,,,,,,,,,,26.000000,0.000000,0.694187,-0.072998,-0.691528,-0.185913,0.984495,0.150409,0.027347,-19.946974,-34.395535,64.405777
1703490712.808545,1703490712.808286,105.000000,0.000000,4308.589844,4275.384766,4320.000000,4311.282227,4265.000000,4244.743652,4316.153809,4290.512695,4291.538574,4254.615234,4481.153809,4464.358887,4353.589844,4407.307617,3301.000000,4.000000,89.000000,,,,0.000000,4.000000,4.000000,4.000000,4.000000,4.000000,4.000000,4.000000,4.000000,4.000000,4.000000,4.000000,4.000000,4.000000,4.000000,100.000000,,,,,,,,,,,,,,,,,,,,,,,,,,,,
1703490712.816354,1703490712.816194,106.000000,0.000000,4304.743652,4275.000000,4315.000000,4313.461426,4272.692383,4254.743652,4319.743652,4293.333496,4283.717773,4253.077148,4479.871582,4465.769043,4350.641113,4405.000000,6008.000000,4.000000,89.000000,,,,0.000000,4.000000,4.000000,4.000000,4.000000,4.000000,4.000000,4.000000,4.000000,4.000000,4.000000,4.000000,4.000000,4.000000,4.000000,100.000000,,,,,,,,,,,,,,,,,,,,,,,,,,,,
1703490712.824162,1703490712.824002,107.000000,0.000000,4290.000000,4276.666504,4309.230957,4309.615234,4281.282227,4270.256348,4328.974121,4290.769043,4278.717773,4245.641113,4470.256348,4465.384766,4337.179688,4402.948730,5667.000000,4.000000,89.000000,,,,0.000000,4.000000,4.000000,4.000000,4.000000,4.000000,4.000000,4.000000,4.000000,4.000000,4.000000,4.000000,4.000000,4.000000,4.000000,100.000000,,,,,,,,,,,,,,,,,,,,,,,,,,,,
1703490712.831970,1703490712.831909,108.000000,0.000000,4288.461426,4275.384766,4311.282227,4312.307617,4286.410156,4284.871582,4337.051270,4289.358887,4277.307617,4238.461426,4464.871582,4464.487305,4331.922852,4408.974121,5920.000000,4.000000,89.000000,,,,0.000000,4.000000,4.000000,4.000000,4.000000,4.000000,4.000000,4.000000,4.000000,4.000000,4.000000,4.000000,4.000000,4.000000,4.000000,100.000000,,,,,,,,,,,,,,,,,27.000000,0.000000,0.694225,-0.073059,-0.691467,-0.185974,0.983030,0.141131,0.037602,-19.885611,-34.455982,64.398529
1703490712.839778,1703490712.839717,109.000000,0.000000,4292.563965,4272.948730,4310.897461,4317.820313,4285.512695,4289.871582,4340.384766,4290.128418,4272.820313,4240.384766,4472.563965,4463.589844,4343.974121,4411.666504,3301.000000,4.000000,89.000000,,,,0.000000,4.000000,4.000000,4.000000,4.000000,4.000000,4.000000,4.000000,4.000000,4.000000,4.000000,4.000000,4.000000,4.000000,4.000000,100.000000,,,,,,,,,,,,,,,,,,,,,,,,,,,,
1703490712.847586,1703490712.847625,110.000000,0.000000,4288.333496,4275.769043,4307.692383,4313.717773,4281.410156,4290.128418,4343.974121,4291.025879,4273.846191,4250.384766,4479.615234,4465.256348,4350.897461,4412.948730,6008.000000,4.000000,89.000000,,,,0.000000,4.000000,4.000000,4.000000,4.000000,4.000000,4.000000,4.000000,4.000000,4.000000,4.000000,4.000000,4.000000,4.000000,4.000000,100.000000,,,,,,,,,,,,,,,,,,,,,,,,,,,,
1703490712.855394,1703490712.855433,111.000000,0.000000,4290.897461,4283.589844,4314.487305,4308.333496,4276.538574,4288.205078,4346.666504,4296.282227,4286.538574,4262.820313,4484.358887,4471.538574,4354.358887,4422.307617,5667.000000,4.000000,89.000000,,,,0.000000,4.000000,4.000000,4.000000,4.000000,4.000000,4.000000,4.000000,4.000000,4.000000,4.000000,4.000000,4.000000,4.000000,4.000000,100.000000,,,,,,,,,,,,,,,,,,,,,,,,,,,,
1703490712.863202,1703490712.863341,112.000000,0.000000,4302.051270,4283.974121,4318.846191,4308.717773,4273.077148,4276.922852,4344.230957,4300.384766,4295.641113,4269.615234,4491.666504,4472.307617,4361.410156,4426.410156,5920.000000,4.000000,89.000000,,,,0.000000,4.000000,4.000000,4.000000,4.000000,4.000000,4.000000,4.000000,4.000000,4.000000,4.000000,4.000000,4.000000,4.000000,4.000000,100.000000,,,,,,,,,,,,,,,,,28.000000,0.000000,0.694237,-0.073059,-0.691406,-0.186157,0.992309,0.140154,0.036137,-19.930382,-34.593716,64.392014
1703490712.871010,1703490712.871149,113.000000,0.000000,4305.128418,4279.230957,4315.897461,4313.589844,4268.974121,4259.230957,4337.307617,4297.179688,4298.461426,4267.692383,4495.897461,4470.128418,4361.025879,4425.769043,3301.000000,4.000000,89.000000,,,,0.000000,4.000000,4.000000,4.000000,4.000000,4.000000,4.000000,4.000000,4.000000,4.000000,4.000000,4.000000,4.000000,4.000000,4.000000,100.000000,,,,,,,,,,,,,,,,,,,,,,,,,,,,
1703490712.878818,1703490712.878957,114.000000,0.000000,4297.692383,4281.794922,4317.436035,4315.384766,4262.179688,4245.769043,4328.589844,4293.974121,4302.948730,4268.846191,4495.512695,4471.666504,4359.230957,4425.769043,6008.000000,4.000000,89.000000,,,,0.000000,4.000000,4.000000,4.000000,4.000000,4.000000,4.000000,4.000000,4.000000,4.000000,4.000000,4.000000,4.000000,4.000000,4.000000,100.000000,,,,,,,,,,,,,,,,,,,,,,,,,,,,
1703490712.886626,1703490712.886665,115.000000,0.000000,4299.615234,4285.512695,4324.743652,4313.846191,4265.256348,4236.922852,4326.282227,4298.333496,4306.666504,4278.846191,4501.282227,4471.666504,4370.000000,4425.384766,5667.000000,4.000000,89.000000,,,,0.000000,4.000000,4.000000,4.000000,4.000000,4.000000,4.000000,4.000000,4.000000,4.000000,4.000000,4.000000,4.000000,4.000000,4.000000,100.000000,,,,,,,,,,,,,,,,,,,,,,,,,,,,
1703490712.894434,1703490712.894573,116.000000,0.000000,4304.487305,4285.000000,4327.436035,4315.000000,4271.922852,4228.205078,4326.410156,4299.871582,4305.128418,4278.333496,4504.358887,4470.000000,4374.871582,4426.538574,5920.000000,4.000000,89.000000,,,,0.000000,4.000000,4.000000,4.000000,4.000000,4.000000,4.000000,4.000000,4.000000,4.000000,4.000000,4.000000,4.000000,4.000000,4.000000,100.000000,,,,,,,,,,,,,,,,,29.000000,0.000000,0.694217,-0.072937,-0.691406,-0.186279,0.984495,0.150897,0.030765,-19.970678,-34.501011,64.419479
1703490712.902242,1703490712.902381,117.000000,0.000000,4291.666504,4279.487305,4318.205078,4313.589844,4262.179688,4216.282227,4315.897461,4287.179688,4290.512695,4256.922852,4484.871582,4464.487305,4354.358887,4422.307617,3301.000000,4.000000,89.000000,,,,0.000000,4.000000,4.000000,4.000000,4.000000,4.000000,4.000000,4.000000,4.000000,4.000000,4.000000,4.000000,4.000000,4.000000,4.000000,100.000000,,,,,,,,,,,,,,,,,,,,,,,,,,,,
1703490712.910050,1703490712.910289,118.000000,0.000000,4281.025879,4272.307617,4308.974121,4305.769043,4256.538574,4216.153809,4308.461426,4278.974121,4274.102539,4240.512695,4465.512695,4457.948730,4340.128418,4416.666504,6008.000000,4.000000,89.000000,,,,0.000000,4.000000,4.000000,4.000000,4.000000,4.000000,4.000000,4.000000,4.000000,4.000000,4.000000,4.000000,4.000000,4.000000,4.000000,100.000000,,,,,,,,,,,,,,,,,,,,,,,,,,,,
1703490712.917858,1703490712.918097,119.000000,0.000000,4282.563965,4274.743652,4307.692383,4303.205078,4269.871582,4233.461426,4313.333496,4286.410156,4269.871582,4243.461426,4469.487305,4460.000000,4348.974121,4417.563965,5667.000000,4.000000,89.000000,,,,0.000000,4.000000,4.000000,4.000000,4.000000,4.000000,4.000000,4.000000,4.000000,4.000000,4.000000,4.000000,4.000000,4.000000,4.000000,100.000000,,,,,,,,,,,,,,,,,,,,,,,,,,,,
1703490712.925666,1703490712.925805,120.000000,0.000000,4281.025879,4280.384766,4306.794922,4306.538574,4275.128418,4239.102539,4311.025879,4284.743652,4266.282227,4241.153809,4475.128418,4460.769043,4351.153809,4415.897461,5920.000000,4.000000,89.000000,,,,0.000000,4.000000,4.000000,4.000000,4.000000,4.000000,4.000000,4.000000,4.000000,4.000000,4.000000,4.000000,4.000000,4.000000,4.000000,100.000000,,,,,,,,,,,,,,,,,30.000000,0.000000,0.694277,-0.072632,-0.691345,-0.186401,0.964473,0.154804,0.029300,-19.906942,-34.467579,64.410866
1703490712.933474,1703490712.933613,121.000000,0.000000,4277.307617,4273.717773,4305.128418,4304.102539,4268.333496,4229.871582,4307.436035,4277.436035,4258.846191,4230.897461,4464.487305,4455.512695,4339.743652,4409.487305,3301.000000,4.000000,89.000000,,,,0.000000,4.000000,4.000000,4.000000,4.000000,4.000000,4.000000,4.000000,4.000000,4.000000,4.000000,4.000000,4.000000,4.000000,4.000000,100.000000,,,,,,,,,,,,,,,,,,,,,,,,,,,,
1703490712.941282,1703490712.941321,122.000000,0.000000,4279.358887,4265.897461,4307.051270,4301.153809,4268.846191,4237.179688,4319.487305,4287.820313,4266.922852,4235.512695,4462.692383,4456.538574,4340.128418,4411.794922,6008.000000,4.000000,89.000000,,,,0.000000,4.000000,4.000000,4.000000,4.000000,4.000000,4.000000,4.000000,4.000000,4.000000,4.000000,4.000000,4.000000,4.000000,4.000000,100.000000,,,,,,,,,,,,,,,,,,,,,,,,,,,,
1703490712.949091,1703490712.949229,123.000000,0.000000,4284.230957,4270.769043,4310.000000,4305.000000,4268.974121,4250.256348,4328.846191,4297.563965,4283.205078,4248.205078,4475.256348,4463.589844,4352.179688,4419.102539,5667.000000,4.000000,89.000000,,,,0.000000,4.000000,4.000000,4.000000,4.000000,4.000000,4.000000,4.000000,4.000000,4.000000,4.000000,4.000000,4.000000,4.000000,4.000000,100.000000,,,,,,,,,,,,,,,,,,,,,,,,,,,,
1703490712.956899,1703490712.957037,124.000000,0.000000,4287.179688,4277.436035,4310.512695,4305.000000,4267.820313,4245.897461,4325.512695,4294.615234,4288.717773,4250.641113,4474.102539,4464.487305,4352.948730,4418.974121,5920.000000,4.000000,89.000000,,,,0.000000,4.000000,4.000000,4.000000,4.000000,4.000000,4.000000,4.000000,4.000000,4.000000,4.000000,4.000000,4.000000,4.000000,4.000000,100.000000,,,,,,,,,,,,,,,,,31.000000,0.000000,0.694332,-0.072693,-0.691284,-0.186401,0.984007,0.163106,0.040532,-19.982916,-34.437485,64.436440
1703490712.964707,1703490712.964845,125.000000,0.000000,4288.205078,4272.948730,4306.666504,4299.230957,4269.230957,4235.641113,4325.769043,4295.384766,4295.128418,4253.589844,4469.743652,4460.000000,4350.128418,4414.487305,3301.000000,4.000000,89.000000,,,,0.000000,4.000000,4.000000,4.000000,4.000000,4.000000,4.000000,4.000000,4.000000,4.000000,4.000000,4.000000,4.000000,4.000000,4.000000,100.000000,,,,,,,,,,,,,,,,,,,,,,,,,,,,
1703490712.972515,1703490712.972553,126.000000,0.000000,4291.922852,4265.897461,4302.307617,4303.333496,4264.743652,4230.769043,4325.384766,4296.538574,4301.794922,4257.948730,4478.205078,4458.589844,4350.256348,4409.615234,6008.000000,4.000000,89.000000,,,,0.000000,4.000000,4.000000,4.000000,4.000000,4.000000,4.000000,4.000000,4.000000,4.000000,4.000000,4.000000,4.000000,4.000000,4.000000,100.000000,,,,,,,,,,,,,,,,,,,,,,,,,,,,
1703490712.980323,1703490712.980361,127.000000,0.000000,4297.820313,4266.282227,4301.025879,4309.230957,4256.538574,4223.589844,4315.641113,4292.436035,4294.358887,4250.641113,4477.179688,4457.307617,4343.077148,4403.846191,89.000000,4.000000,89.000000,,,,0.000000,4.000000,4.000000,4.000000,4.000000,4.000000,4.000000,4.000000,4.000000,4.000000,4.000000,4.000000,4.000000,4.000000,4.000000,100.000000,,,,,,,,,,,,,,,,,,,,,,,,,,,,
1703490712.988131,1703490712.988069,0.000000,0.000000,4292.692383,4267.563965,4295.512695,4300.128418,4253.461426,4214.487305,4307.051270,4291.794922,4280.641113,4241.025879,4460.128418,4451.538574,4331.410156,4399.615234,4941.000000,4.000000,89.000000,,,,0.000000,4.000000,4.000000,4.000000,4.000000,4.000000,4.000000,4.000000,4.000000,4.000000,4.000000,4.000000,4.000000,4.000000,4.000000,100.000000,,,,,,,,,,,,,,,,,0.000000,0.000000,0.694334,-0.072876,-0.691345,-0.186096,0.990844,0.141131,0.032719,-19.984623,-34.543739,64.442802
1703490712.995939,1703490712.995877,1.000000,0.000000,4282.692383,4264.487305,4290.769043,4291.922852,4257.307617,4208.205078,4303.077148,4290.897461,4275.256348,4239.615234,4454.743652,4450.128418,4331.025879,4402.948730,5681.000000,4.000000,89.000000,,,,0.000000,4.000000,4.000000,4.000000,4.000000,4.000000,4.000000,4.000000,4.000000,4.000000,4.000000,4.000000,4.000000,4.000000,4.000000,100.000000,,,,,,,,,,,,,,,,,,,,,,,,,,,,
1703490713.003747,1703490713.003585,2.000000,0.000000,4285.512695,4264.487305,4295.128418,4296.666504,4256.794922,4209.358887,4295.897461,4283.846191,4271.922852,4234.230957,4462.307617,4453.333496,4335.384766,4406.666504,5355.000000,4.000000,89.000000,,,,0.000000,4.000000,4.000000,4.000000,4.000000,4.000000,4.000000,4.000000,4.000000,4.000000,4.000000,4.000000,4.000000,4.000000,4.000000,100.000000,,,,,,,,,,,,,,,,,,,,,,,,,,,,
1703490713.011555,1703490713.011393,3.000000,0.000000,4295.641113,4266.538574,4296.922852,4299.743652,4254.487305,4216.794922,4291.922852,4280.384766,4262.948730,4223.461426,4463.717773,4454.487305,4334.743652,4403.461426,5519.000000,4.000000,89.000000,,,,0.000000,4.000000,4.000000,4.000000,4.000000,4.000000,4.000000,4.000000,4.000000,4.000000,4.000000,4.000000,4.000000,4.000000,4.000000,100.000000,,,,,,,,,,,,,,,,,,,,,,,,,,,,
1703490713.019363,1703490713.019101,4.000000,0.000000,4299.743652,4262.692383,4295.000000,4298.461426,4263.717773,4226.025879,4298.846191,4283.077148,4263.205078,4225.769043,4459.230957,4454.871582,4335.128418,4405.128418,5315.000000,4.000000,89.000000,,,,0.000000,4.000000,4.000000,4.000000,4.000000,4.000000,4.000000,4.000000,4.000000,4.000000,4.000000,4.000000,4.000000,4.000000,4.000000,100.000000,,,,,,,,,,,,,,,,,1.000000,0.000000,0.694337,-0.072998,-0.691345,-0.186035,0.987914,0.154804,0.014650,-19.952827,-34.556030,64.448517
1703490713.027171,1703490713.026909,5.000000,0.000000,4300.256348,4262.051270,4296.922852,4301.025879,4273.077148,4235.512695,4303.461426,4288.205078,4272.179688,4233.205078,4458.077148,4454.230957,4332.820313,4407.692383,5138.000000,4.000000,89.000000,,,,0.000000,4.000000,4.000000,4.000000,4.000000,4.000000,4.000000,4.000000,4.000000,4.000000,4.000000,4.000000,4.000000,4.000000,4.000000,100.000000,,,,,,,,,,,,,,,,,,,,,,,,,,,,
1703490713.034979,1703490713.034617,6.000000,0.000000,4298.974121,4266.538574,4297.051270,4298.333496,4265.769043,4235.897461,4300.256348,4290.000000,4272.948730,4233.077148,4460.384766,4452.563965,4330.000000,4403.461426,3512.000000,4.000000,89.000000,,,,0.000000,4.000000,4.000000,4.000000,4.000000,4.000000,4.000000,4.000000,4.000000,4.000000,4.000000,4.000000,4.000000,4.000000,4.000000,100.000000,,,,,,,,,,,,,,,,,,,,,,,,,,,,
1703490713.042787,1703490713.042525,7.000000,0.000000,4292.820313,4265.512695,4289.743652,4292.436035,4254.358887,4229.358887,4298.077148,4285.897461,4272.051270,4235.512695,4458.846191,4451.666504,4331.282227,4404.487305,2820.000000,4.000000,89.000000,,,,0.000000,4.000000,4.000000,4.000000,4.000000,4.000000,4.000000,4.000000,4.000000,4.000000,4.000000,4.000000,4.000000,4.000000,4.000000,100.000000,1.000000,25.000000,4.000000,1.000000,3.000000,3.000000,1.000000,1.000000,1.000000,1.000000,4.000000,1.000000,4.000000,4.000000,4.000000,4.000000,,,,,,,,,,,,
1703490713.050595,1703490713.050333,8.000000,0.000000,4284.615234,4258.077148,4284.487305,4289.615234,4256.153809,4228.717773,4298.974121,4282.436035,4278.205078,4236.794922,4449.102539,4448.589844,4323.205078,4404.615234,4280.000000,4.000000,89.000000,,,,0.000000,4.000000,4.000000,4.000000,4.000000,4.000000,4.000000,4.000000,4.000000,4.000000,4.000000,4.000000,4.000000,4.000000,4.000000,100.000000,,,,,,,,,,,,,,,,,2.000000,0.000000,0.694276,-0.072998,-0.691406,-0.186035,0.976682,0.148456,0.030277,-19.857546,-34.600426,64.353668
1703490713.058403,1703490713.058241,9.000000,0.000000,4281.922852,4252.820313,4283.461426,4280.769043,4256.410156,4223.589844,4298.461426,4283.077148,4279.615234,4230.128418,4445.512695,4447.436035,4312.436035,4395.641113,5460.000000,4.000000,89.000000,,,,0.000000,4.000000,4.000000,4.000000,4.000000,4.000000,4.000000,4.000000,4.000000,4.000000,4.000000,4.000000,4.000000,4.000000,4.000000,100.000000,,,,,,,,,,,,,,,,,,,,,,,,,,,,
1703490713.066211,1703490713.066049,10.000000,0.000000,4290.769043,4254.743652,4283.205078,4276.922852,4246.410156,4206.794922,4292.307617,4285.641113,4277.307617,4233.205078,4454.615234,4449.358887,4323.461426,4393.974121,6006.000000,4.000000,89.000000,,,,0.000000,4.000000,4.000000,4.000000,4.000000,4.000000,4.000000,4.000000,4.000000,4.000000,4.000000,4.000000,4.000000,4.000000,4.000000,100.000000,,,,,,,,,,,,,,,,,,,,,,,,,,,,
1703490713.074019,1703490713.073957,11.000000,0.000000,4297.948730,4256.410156,4281.025879,4283.974121,4237.436035,4191.282227,4282.179688,4284.487305,4276.153809,4240.769043,4454.358887,4447.692383,4332.051270,4400.128418,5672.000000,4.000000,89.000000,,,,0.000000,4.000000,4.000000,4.000000,4.000000,4.000000,4.000000,4.000000,4.000000,4.000000,4.000000,4.000000,4.000000,4.000000,4.000000,100.000000,,,,,,,,,,,,,,,,,,,,,,,,,,,,
1703490713.081828,1703490713.081765,12.000000,0.000000,4289.358887,4254.230957,4277.948730,4284.615234,4237.436035,4187.051270,4277.307617,4282.051270,4271.538574,4233.461426,4442.436035,4443.589844,4317.307617,4404.871582,5918.000000,4.000000,89.000000,,,,0.000000,4.000000,4.000000,4.000000,4.000000,4.000000,4.000000,4.000000,4.000000,4.000000,4.000000,4.000000,4.000000,4.000000,4.000000,100.000000,,,,,,,,,,,,,,,,,3.000000,0.000000,0.694293,-0.072998,-0.691406,-0.185974,0.982542,0.139177,0.036137,-19.855124,-34.590385,64.384964
1703490713.089635,1703490713.089672,13.000000,0.000000,4285.000000,4255.000000,4279.743652,4281.153809,4242.948730,4190.128418,4278.974121,4282.820313,4266.153809,4224.358887,4439.743652,4440.769043,4311.794922,4400.000000,3311.000000,4.000000,89.000000,,,,0.000000,4.000000,4.000000,4.000000,4.000000,4.000000,4.000000,4.000000,4.000000,4.000000,4.000000,4.000000,4.000000,4.000000,4.000000,100.000000,,,,,,,,,,,,,,,,,,,,,,,,,,,,
1703490713.097443,1703490713.097480,14.000000,0.000000,4295.897461,4256.794922,4284.230957,4286.025879,4245.384766,4191.666504,4272.307617,4284.743652,4264.102539,4226.666504,4446.794922,4442.563965,4319.487305,4387.948730,6006.000000,4.000000,89.000000,,,,0.000000,4.000000,4.000000,4.000000,4.000000,4.000000,4.000000,4.000000,4.000000,4.000000,4.000000,4.000000,4.000000,4.000000,4.000000,100.000000,,,,,,,,,,,,,,,,,,,,,,,,,,,,
1703490713.105252,1703490713.105388,15.000000,0.000000,4307.179688,4261.410156,4288.717773,4296.538574,4249.871582,4193.846191,4263.333496,4283.846191,4265.000000,4235.769043,4452.692383,4448.846191,4328.461426,4398.205078,5672.000000,4.000000,89.000000,,,,0.000000,4.000000,4.000000,4.000000,4.000000,4.000000,4.000000,4.000000,4.000000,4.000000,4.000000,4.000000,4.000000,4.000000,4.000000,100.000000,,,,,,,,,,,,,,,,,,,,,,,,,,,,
1703490713.113060,1703490713.113196,16.000000,0.000000,4312.179688,4267.051270,4296.410156,4301.410156,4257.179688,4199.871582,4265.000000,4280.512695,4260.897461,4239.102539,4452.820313,4451.794922,4336.410156,4418.333496,0.000000,4.000000,89.000000,,,,0.000000,4.000000,4.000000,4.000000,4.000000,4.000000,4.000000,4.000000,4.000000,4.000000,4.000000,4.000000,4.000000,4.000000,4.000000,100.000000,,,,,,,,,,,,,,,,,4.000000,0.000000,0.694324,-0.073120,-0.691345,-0.186035,0.972287,0.135270,0.038091,-19.852945,-34.548012,64.379807
1703490713.120868,1703490713.121104,17.000000,0.000000,4308.717773,4263.333496,4295.897461,4294.230957,4256.666504,4200.128418,4266.025879,4279.358887,4254.615234,4228.333496,4446.025879,4448.461426,4331.282227,4410.897461,0.000000,4.000000,89.000000,,,,0.000000,4.000000,4.000000,4.000000,4.000000,4.000000,4.000000,4.000000,4.000000,4.000000,4.000000,4.000000,4.000000,4.000000,4.000000,100.000000,,,,,,,,,,,,,,,,,,,,,,,,,,,,
1703490713.128676,1703490713.128912,18.000000,0.000000,4298.974121,4257.692383,4282.563965,4284.102539,4252.179688,4195.512695,4257.436035,4277.051270,4258.077148,4219.102539,4441.025879,4445.256348,4320.897461,4395.384766,0.000000,4.000000,89.000000,,,,0.000000,4.000000,4.000000,4.000000,4.000000,4.000000,4.000000,4.000000,4.000000,4.000000,4.000000,4.000000,4.000000,4.000000,4.000000,100.000000,,,,,,,,,,,,,,,,,,,,,,,,,,,,
1703490713.136484,1703490713.136620,19.000000,0.000000,4296.410156,4260.512695,4280.641113,4282.051270,4250.000000,4193.589844,4252.051270,4276.025879,4265.128418,4223.077148,4442.051270,4446.153809,4320.897461,4395.512695,0.000000,4.000000,89.000000,,,,0.000000,4.000000,4.000000,4.000000,4.000000,4.000000,4.000000,4.000000,4.000000,4.000000,4.000000,4.000000,4.000000,4.000000,4.000000,100.000000,,,,,,,,,,,,,,,,,,,,,,,,,,,,
1703490713.144292,1703490713.144428,20.000000,0.000000,4300.512695,4260.512695,4288.205078,4284.487305,4247.436035,4198.974121,4254.230957,4279.615234,4265.769043,4224.743652,4439.871582,4445.512695,4323.077148,4397.179688,0.000000,4.000000,89.000000,,,,0.000000,4.000000,4.000000,4.000000,4.000000,4.000000,4.000000,4.000000,4.000000,4.000000,4.000000,4.000000,4.000000,4.000000,4.000000,100.000000,,,,,,,,,,,,,,,,,5.000000,0.000000,0.694420,-0.073364,-0.691223,-0.186035,0.984495,0.154316,0.031742,-19.850985,-34.509880,64.491821
1703490713.152100,1703490713.152136,21.000000,0.000000,4298.974121,4255.384766,4286.282227,4283.333496,4241.794922,4204.358887,4253.589844,4279.871582,4261.153809,4219.487305,4433.461426,4439.615234,4315.512695,4392.820313,0.000000,4.000000,89.000000,,,,0.000000,4.000000,4.000000,4.000000,4.000000,4.000000,4.000000,4.000000,4.000000,4.000000,4.000000,4.000000,4.000000,4.000000,4.000000,100.000000,,,,,,,,,,,,,,,,,,,,,,,,,,,,
1703490713.159908,1703490713.159944,22.000000,0.000000,4299.743652,4255.641113,4286.666504,4282.307617,4240.769043,4201.025879,4250.384766,4275.256348,4258.077148,4218.205078,4428.077148,4438.205078,4309.358887,4390.000000,0.000000,4.000000,89.000000,,,,0.000000,4.000000,4.000000,4.000000,4.000000,4.000000,4.000000,4.000000,4.000000,4.000000,4.000000,4.000000,4.000000,4.000000,4.000000,100.000000,,,,,,,,,,,,,,,,,,,,,,,,,,,,
1703490713.167716,1703490713.167652,23.000000,0.000000,4306.538574,4258.589844,4291.025879,4283.205078,4244.358887,4198.461426,4250.897461,4276.282227,4259.230957,4217.307617,4431.153809,4443.846191,4312.563965,4390.769043,0.000000,4.000000,89.000000,,,,0.000000,4.000000,4.000000,4.000000,4.000000,4.000000,4.000000,4.000000,4.000000,4.000000,4.000000,4.000000,4.000000,4.000000,4.000000,100.000000,,,,,,,,,,,,,,,,,,,,,,,,,,,,
1703490713.175524,1703490713.175460,24.000000,0.000000,4299.358887,4256.025879,4281.025879,4278.205078,4240.384766,4198.205078,4251.153809,4280.512695,4255.384766,4213.974121,4430.256348,4443.077148,4307.051270,4384.743652,0.000000,4.000000,89.000000,,,,0.000000,4.000000,4.000000,4.000000,4.000000,4.000000,4.000000,4.000000,4.000000,4.000000,4.000000,4.000000,4.000000,4.000000,4.000000,100.000000,,,,,,,,,,,,,,,,,6.000000,0.000000,0.694430,-0.073425,-0.691223,-0.185974,0.987914,0.146014,0.022952,-19.932552,-34.375557,64.392639
1703490713.183332,1703490713.183168,25.000000,0.000000,4289.743652,4251.666504,4276.025879,4274.358887,4236.282227,4194.615234,4247.179688,4279.230957,4246.794922,4212.051270,4425.641113,4439.102539,4299.615234,4379.102539,0.000000,4.000000,89.000000,,,,0.000000,4.000000,4.000000,4.000000,4.000000,4.000000,4.000000,4.000000,4.000000,4.000000,4.000000,4.000000,4.000000,4.000000,4.000000,100.000000,,,,,,,,,,,,,,,,,,,,,,,,,,,,
1703490713.191140,1703490713.190976,26.000000,0.000000,4298.333496,4253.077148,4287.820313,4280.641113,4240.897461,4190.641113,4241.410156,4277.820313,4246.153809,4212.179688,4427.436035,4440.769043,4308.974121,4384.871582,0.000000,4.000000,89.000000,,,,0.000000,4.000000,4.000000,4.000000,4.000000,4.000000,4.000000,4.000000,4.000000,4.000000,4.000000,4.000000,4.000000,4.000000,4.000000,100.000000,,,,,,,,,,,,,,,,,,,,,,,,,,,,
1703490713.198948,1703490713.198684,27.000000,0.000000,4301.794922,4254.230957,4286.410156,4280.641113,4240.256348,4185.641113,4234.615234,4276.025879,4246.153809,4207.307617,4423.077148,4439.487305,4308.846191,4383.589844,0.000000,4.000000,89.000000,,,,0.000000,4.000000,4.000000,4.000000,4.000000,4.000000,4.000000,4.000000,4.000000,4.000000,4.000000,4.000000,4.000000,4.000000,4.000000,100.000000,,,,,,,,,,,,,,,,,,,,,,,,,,,,
1703490713.206756,1703490713.206492,28.000000,0.000000,4287.307617,4249.615234,4274.358887,4269.615234,4232.563965,4182.948730,4226.922852,4272.051270,4242.563965,4202.436035,4414.487305,4433.717773,4294.230957,4371.538574,0.000000,4.000000,89.000000,,,,0.000000,4.000000,4.000000,4.000000,4.000000,4.000000,4.000000,4.000000,4.000000,4.000000,4.000000,4.000000,4.000000,4.000000,4.000000,100.000000,,,,,,,,,,,,,,,,,7.000000,0.000000,0.694379,-0.073486,-0.691284,-0.185913,0.977658,0.150897,0.031254,-19.972630,-34.221336,64.303375
1703490713.214564,1703490713.214200,29.000000,0.000000,4285.897461,4251.153809,4274.230957,4270.256348,4236.666504,4188.461426,4223.205078,4270.897461,4249.487305,4205.897461,4418.589844,4431.794922,4300.128418,4372.563965,0.000000,4.000000,89.000000,,,,0.000000,4.000000,4.000000,4.000000,4.000000,4.000000,4.000000,4.000000,4.000000,4.000000,4.000000,4.000000,4.000000,4.000000,4.000000,100.000000,,,,,,,,,,,,,,,,,,,,,,,,,,,,
1703490713.222372,1703490713.222108,30.000000,0.000000,4292.436035,4254.487305,4272.436035,4275.512695,4244.102539,4189.743652,4216.538574,4268.717773,4253.205078,4206.282227,4417.563965,4429.871582,4309.487305,4373.717773,0.000000,4.000000,89.000000,,,,0.000000,4.000000,4.000000,4.000000,4.000000,4.000000,4.000000,4.000000,4.000000,4.000000,4.000000,4.000000,4.000000,4.000000,4.000000,100.000000,,,,,,,,,,,,,,,,,,,,,,,,,,,,
1703490713.230180,1703490713.229916,31.000000,0.000000,4285.769043,4249.871582,4263.461426,4268.077148,4235.128418,4176.922852,4204.871582,4262.436035,4241.410156,4196.410156,4399.487305,4423.077148,4294.615234,4363.589844,0.000000,4.000000,89.000000,,,,0.000000,4.000000,4.000000,4.000000,4.000000,4.000000,4.000000,4.000000,4.000000,4.000000,4.000000,4.000000,4.000000,4.000000,4.000000,100.000000,,,,,,,,,,,,,,,,,,,,,,,,,,,,
1703490713.237989,1703490713.237824,32.000000,0.000000,4289.102539,4248.846191,4267.051270,4265.512695,4227.563965,4172.820313,4204.102539,4260.128418,4241.153809,4197.179688,4398.717773,4424.487305,4294.102539,4368.333496,0.000000,4.000000,89.000000,,,,0.000000,4.000000,4.000000,4.000000,4.000000,4.000000,4.000000,4.000000,4.000000,4.000000,4.000000,4.000000,4.000000,4.000000,4.000000,100.000000,,,,,,,,,,,,,,,,,8.000000,0.000000,0.694479,-0.073425,-0.691223,-0.185791,0.986937,0.150409,0.039556,-19.908701,-34.382534,64.339706
1703490713.245797,1703490713.245632,33.000000,0.000000,4304.230957,4255.512695,4278.974121,4273.461426,4234.230957,4177.820313,4208.077148,4264.230957,4253.846191,4210.897461,4412.051270,4432.820313,4308.717773,4383.461426,0.000000,4.000000,89.000000,,,,0.000000,4.000000,4.000000,4.000000,4.000000,4.000000,4.000000,4.000000,4.000000,4.000000,4.000000,4.000000,4.000000,4.000000,4.000000,100.000000,,,,,,,,,,,,,,,,,,,,,,,,,,,,
1703490713.253605,1703490713.253540,34.000000,0.000000,4299.871582,4253.205078,4276.794922,4271.538574,4238.717773,4173.589844,4205.384766,4268.589844,4255.769043,4212.436035,4406.410156,4433.205078,4298.589844,4376.666504,0.000000,4.000000,89.000000,,,,0.000000,4.000000,4.000000,4.000000,4.000000,4.000000,4.000000,4.000000,4.000000,4.000000,4.000000,4.000000,4.000000,4.000000,4.000000,100.000000,,,,,,,,,,,,,,,,,,,,,,,,,,,,
1703490713.261413,1703490713.261348,35.000000,0.000000,4291.794922,4244.487305,4271.794922,4264.743652,4234.487305,4170.897461,4206.410156,4272.051270,4251.922852,4204.743652,4398.846191,4434.487305,4285.000000,4362.307617,0.000000,4.000000,89.000000,,,,0.000000,4.000000,4.000000,4.000000,4.000000,4.000000,4.000000,4.000000,4.000000,4.000000,4.000000,4.000000,4.000000,4.000000,4.000000,100.000000,,,,,,,,,,,,,,,,,,,,,,,,,,,,
1703490713.269221,1703490713.269256,36.000000,0.000000,4292.563965,4242.948730,4273.846191,4263.974121,4232.948730,4173.333496,4213.205078,4278.077148,4253.461426,4208.077148,4408.846191,4442.820313,4295.512695,4370.000000,0.000000,4.000000,89.000000,,,,0.000000,4.000000,4.000000,4.000000,4.000000,4.000000,4.000000,4.000000,4.000000,4.000000,4.000000,4.000000,4.000000,4.000000,4.000000,100.000000,,,,,,,,,,,,,,,,,9.000000,0.000000,0.694556,-0.073425,-0.691162,-0.185730,0.982542,0.146014,0.034184,-20.117830,-34.260948,64.339066
1703490713.277029,1703490713.277064,37.000000,0.000000,4290.000000,4244.871582,4276.666504,4267.179688,4237.563965,4173.205078,4210.897461,4278.333496,4254.230957,4217.051270,4418.846191,4446.794922,4309.871582,4384.230957,0.000000,4.000000,89.000000,,,,0.000000,4.000000,4.000000,4.000000,4.000000,4.000000,4.000000,4.000000,4.000000,4.000000,4.000000,4.000000,4.000000,4.000000,4.000000,100.000000,,,,,,,,,,,,,,,,,,,,,,,,,,,,
1703490713.284837,1703490713.284972,38.000000,0.000000,4291.666504,4248.461426,4276.794922,4269.230957,4235.897461,4170.128418,4202.051270,4272.051270,4246.538574,4208.589844,4408.974121,4444.487305,4303.589844,4381.153809,0.000000,4.000000,89.000000,,,,0.000000,4.000000,4.000000,4.000000,4.000000,4.000000,4.000000,4.000000,4.000000,4.000000,4.000000,4.000000,4.000000,4.000000,4.000000,100.000000,,,,,,,,,,,,,,,,,,,,,,,,,,,,
1703490713.292645,1703490713.292779,39.000000,0.000000,4298.974121,4252.692383,4278.205078,4272.307617,4227.051270,4171.153809,4200.641113,4271.282227,4238.846191,4196.410156,4397.179688,4442.948730,4292.692383,4377.563965,0.000000,4.000000,89.000000,,,,0.000000,4.000000,4.000000,4.000000,4.000000,4.000000,4.000000,4.000000,4.000000,4.000000,4.000000,4.000000,4.000000,4.000000,4.000000,100.000000,,,,,,,,,,,,,,,,,,,,,,,,,,,,
1703490713.300453,1703490713.300687,40.000000,0.000000,4296.025879,4251.794922,4278.461426,4273.461426,4223.717773,4176.922852,4200.897461,4272.563965,4240.000000,4200.000000,4396.538574,4443.333496,4293.461426,4376.538574,0.000000,4.000000,89.000000,,,,0.000000,4.000000,4.000000,4.000000,4.000000,4.000000,4.000000,4.000000,4.000000,4.000000,4.000000,4.000000,4.000000,4.000000,4.000000,100.000000,,,,,,,,,,,,,,,,,10.000000,0.000000,0.694550,-0.073486,-0.691162,-0.185730,0.975705,0.146014,0.041021,-19.906048,-34.251518,64.421829
1703490713.308261,1703490713.308495,41.000000,0.000000,4286.922852,4244.487305,4272.051270,4269.487305,4226.794922,4178.077148,4201.282227,4270.769043,4246.794922,4203.461426,4396.794922,4442.948730,4292.948730,4364.743652,0.000000,4.000000,89.000000,,,,0.000000,4.000000,4.000000,4.000000,4.000000,4.000000,4.000000,4.000000,4.000000,4.000000,4.000000,4.000000,4.000000,4.000000,4.000000,100.000000,,,,,,,,,,,,,,,,,,,,,,,,,,,,
1703490713.316069,1703490713.316203,42.000000,0.000000,4288.974121,4245.512695,4263.846191,4267.051270,4230.512695,4178.846191,4201.410156,4268.717773,4254.615234,4201.282227,4393.974121,4437.179688,4287.179688,4363.333496,0.000000,4.000000,89.000000,,,,0.000000,4.000000,4.000000,4.000000,4.000000,4.000000,4.000000,4.000000,4.000000,4.000000,4.000000,4.000000,4.000000,4.000000,4.000000,100.000000,,,,,,,,,,,,,,,,,,,,,,,,,,,,
1703490713.323877,1703490713.324011,43.000000,0.000000,4290.512695,4251.794922,4262.051270,4269.487305,4234.102539,4184.230957,4198.333496,4268.589844,4256.410156,4204.487305,4392.307617,4431.410156,4282.436035,4371.922852,0.000000,4.000000,89.000000,,,,0.000000,4.000000,4.000000,4.000000,4.000000,4.000000,4.000000,4.000000,4.000000,4.000000,4.000000,4.000000,4.000000,4.000000,4.000000,100.000000,,,,,,,,,,,,,,,,,,,,,,,,,,,,
1703490713.331685,1703490713.331719,44.000000,0.000000,4282.179688,4246.794922,4262.051270,4269.102539,4238.461426,4186.410156,4198.974121,4268.077148,4256.666504,4211.025879,4394.358887,4432.307617,4283.461426,4364.615234,0.000000,4.000000,89.000000,,,,0.000000,4.000000,4.000000,4.000000,4.000000,4.000000,4.000000,4.000000,4.000000,4.000000,4.000000,4.000000,4.000000,4.000000,4.000000,100.000000,,,,,,,,,,,,,,,,,11.000000,0.000000,0.694517,-0.073792,-0.691162,-0.185730,0.991820,0.151386,0.040044,-19.815443,-34.059700,64.446312
1703490713.339493,1703490713.339527,45.000000,0.000000,4283.077148,4241.922852,4257.948730,4261.794922,4240.641113,4180.256348,4200.769043,4266.282227,4259.871582,4211.025879,4398.974121,4428.717773,4287.051270,4355.897461,0.000000,4.000000,89.000000,,,,0.000000,4.000000,4.000000,4.000000,4.000000,4.000000,4.000000,4.000000,4.000000,4.000000,4.000000,4.000000,4.000000,4.000000,4.000000,100.000000,,,,,,,,,,,,,,,,,,,,,,,,,,,,
1703490713.347301,1703490713.347235,46.000000,0.000000,4288.589844,4243.846191,4258.589844,4257.692383,4238.205078,4174.230957,4192.948730,4267.563965,4256.922852,4209.358887,4401.666504,4425.512695,4287.692383,4362.436035,0.000000,4.000000,89.000000,,,,0.000000,4.000000,4.000000,4.000000,4.000000,4.000000,4.000000,4.000000,4.000000,4.000000,4.000000,4.000000,4.000000,4.000000,4.000000,100.000000,,,,,,,,,,,,,,,,,,,,,,,,,,,,
1703490713.355109,1703490713.355043,47.000000,0.000000,4283.461426,4242.563965,4262.436035,4262.179688,4233.974121,4170.128418,4186.282227,4271.410156,4252.179688,4208.846191,4404.615234,4432.948730,4286.666504,4371.410156,0.000000,4.000000,89.000000,,,,0.000000,4.000000,4.000000,4.000000,4.000000,4.000000,4.000000,4.000000,4.000000,4.000000,4.000000,4.000000,4.000000,4.000000,4.000000,100.000000,,,,,,,,,,,,,,,,,,,,,,,,,,,,
1703490713.362917,1703490713.362752,48.000000,0.000000,4276.153809,4243.974121,4258.974121,4263.461426,4231.538574,4162.820313,4191.282227,4275.000000,4251.794922,4204.743652,4404.615234,4437.179688,4290.000000,4369.615234,0.000000,4.000000,89.000000,,,,0.000000,4.000000,4.000000,4.000000,4.000000,4.000000,4.000000,4.000000,4.000000,4.000000,4.000000,4.000000,4.000000,4.000000,4.000000,100.000000,,,,,,,,,,,,,,,,,12.000000,0.000000,0.694562,-0.074097,-0.691101,-0.185669,0.977658,0.151874,0.033696,-19.983898,-34.103729,64.551682
1703490713.370726,1703490713.370560,49.000000,0.000000,4285.256348,4252.820313,4262.820313,4264.102539,4235.897461,4167.307617,4194.871582,4276.922852,4252.179688,4203.333496,4402.051270,4437.820313,4297.948730,4369.487305,0.000000,4.000000,89.000000,,,,0.000000,4.000000,4.000000,4.000000,4.000000,4.000000,4.000000,4.000000,4.000000,4.000000,4.000000,4.000000,4.000000,4.000000,4.000000,100.000000,,,,,,,,,,,,,,,,,,,,,,,,,,,,
1703490713.378533,1703490713.378268,50.000000,0.000000,4299.615234,4254.358887,4276.666504,4273.717773,4239.615234,4179.487305,4195.384766,4281.153809,4254.615234,4208.846191,4405.256348,4443.846191,4298.717773,4378.974121,0.000000,4.000000,89.000000,,,,0.000000,4.000000,4.000000,4.000000,4.000000,4.000000,4.000000,4.000000,4.000000,4.000000,4.000000,4.000000,4.000000,4.000000,4.000000,100.000000,,,,,,,,,,,,,,,,,,,,,,,,,,,,
1703490713.386341,1703490713.386175,51.000000,0.000000,4295.897461,4247.820313,4277.051270,4275.128418,4233.077148,4176.922852,4199.230957,4280.897461,4256.666504,4209.358887,4404.358887,4443.717773,4290.384766,4372.948730,0.000000,4.000000,89.000000,,,,0.000000,4.000000,4.000000,4.000000,4.000000,4.000000,4.000000,4.000000,4.000000,4.000000,4.000000,4.000000,4.000000,4.000000,4.000000,100.000000,,,,,,,,,,,,,,,,,,,,,,,,,,,,
1703490713.394150,1703490713.393983,52.000000,0.000000,4287.820313,4247.948730,4269.615234,4264.615234,4231.922852,4175.000000,4202.692383,4278.974121,4256.666504,4202.179688,4398.461426,4436.538574,4284.871582,4356.538574,0.000000,4.000000,89.000000,,,,0.000000,4.000000,4.000000,4.000000,4.000000,4.000000,4.000000,4.000000,4.000000,4.000000,4.000000,4.000000,4.000000,4.000000,4.000000,100.000000,,,,,,,,,,,,,,,,,13.000000,0.000000,0.694549,-0.074219,-0.691101,-0.185669,0.995727,0.149432,0.030765,-20.052176,-34.193359,64.479843
1703490713.401958,1703490713.401891,53.000000,0.000000,4289.358887,4248.077148,4272.692383,4264.358887,4237.948730,4185.769043,4201.025879,4280.384766,4258.846191,4203.589844,4402.436035,4436.794922,4286.538574,4363.333496,0.000000,4.000000,89.000000,,,,0.000000,4.000000,4.000000,4.000000,4.000000,4.000000,4.000000,4.000000,4.000000,4.000000,4.000000,4.000000,4.000000,4.000000,4.000000,100.000000,,,,,,,,,,,,,,,,,,,,,,,,,,,,
1703490713.409766,1703490713.409699,54.000000,0.000000,4290.128418,4245.641113,4272.179688,4269.743652,4235.000000,4187.307617,4192.820313,4271.153809,4258.846191,4206.538574,4402.563965,4438.589844,4284.102539,4376.410156,0.000000,4.000000,89.000000,,,,0.000000,4.000000,4.000000,4.000000,4.000000,4.000000,4.000000,4.000000,4.000000,4.000000,4.000000,4.000000,4.000000,4.000000,4.000000,100.000000,,,,,,,,,,,,,,,,,,,,,,,,,,,,
1703490713.417574,1703490713.417607,55.000000,0.000000,4284.358887,4248.717773,4265.641113,4268.077148,4231.538574,4178.846191,4184.743652,4261.666504,4250.512695,4198.333496,4390.769043,4431.153809,4279.102539,4366.410156,0.000000,4.000000,89.000000,,,,0.000000,4.000000,4.000000,4.000000,4.000000,4.000000,4.000000,4.000000,4.000000,4.000000,4.000000,4.000000,4.000000,4.000000,4.000000,100.000000,,,,,,,,,,,,,,,,,,,,,,,,,,,,
1703490713.425382,1703490713.425415,56.000000,0.000000,4281.282227,4251.538574,4262.563965,4265.641113,4239.102539,4176.666504,4181.025879,4259.358887,4242.820313,4189.871582,4382.820313,4423.589844,4277.307617,4352.820313,0.000000,4.000000,89.000000,,,,0.000000,4.000000,4.000000,4.000000,4.000000,4.000000,4.000000,4.000000,4.000000,4.000000,4.000000,4.000000,4.000000,4.000000,4.000000,100.000000,,,,,,,,,,,,,,,,,14.000000,0.000000,0.694619,-0.074280,-0.691040,-0.185608,0.976193,0.146991,0.033207,-19.980291,-34.140690,64.581863
1703490713.433190,1703490713.433223,57.000000,0.000000,4280.769043,4250.641113,4255.256348,4266.153809,4240.000000,4172.307617,4174.615234,4250.512695,4236.538574,4188.205078,4379.487305,4421.282227,4273.846191,4351.025879,0.000000,4.000000,89.000000,,,,0.000000,4.000000,4.000000,4.000000,4.000000,4.000000,4.000000,4.000000,4.000000,4.000000,4.000000,4.000000,4.000000,4.000000,4.000000,100.000000,,,,,,,,,,,,,,,,,,,,,,,,,,,,
1703490713.440998,1703490713.440931,58.000000,0.000000,4278.205078,4251.410156,4250.384766,4267.692383,4230.000000,4161.922852,4164.871582,4244.230957,4231.282227,4186.922852,4378.333496,4420.000000,4274.230957,4347.051270,0.000000,4.000000,89.000000,,,,0.000000,4.000000,4.000000,4.000000,4.000000,4.000000,4.000000,4.000000,4.000000,4.000000,4.000000,4.000000,4.000000,4.000000,4.000000,100.000000,,,,,,,,,,,,,,,,,,,,,,,,,,,,
1703490713.448806,1703490713.448839,59.000000,0.000000,4281.410156,4251.282227,4260.384766,4271.922852,4228.205078,4158.205078,4166.025879,4254.358887,4235.769043,4190.128418,4385.128418,4425.256348,4280.769043,4344.102539,0.000000,4.000000,89.000000,,,,0.000000,4.000000,4.000000,4.000000,4.000000,4.000000,4.000000,4.000000,4.000000,4.000000,4.000000,4.000000,4.000000,4.000000,4.000000,100.000000,,,,,,,,,,,,,,,,,,,,,,,,,,,,
1703490713.456614,1703490713.456647,60.000000,0.000000,4281.410156,4246.794922,4266.410156,4273.205078,4228.589844,4157.692383,4174.230957,4262.179688,4238.974121,4196.666504,4387.563965,4430.641113,4274.743652,4346.410156,0.000000,4.000000,89.000000,,,,0.000000,4.000000,4.000000,4.000000,4.000000,4.000000,4.000000,4.000000,4.000000,4.000000,4.000000,4.000000,4.000000,4.000000,4.000000,100.000000,,,,,,,,,,,,,,,,,15.000000,0.000000,0.694655,-0.074402,-0.691040,-0.185425,0.981565,0.147479,0.036626,-19.982262,-34.243286,64.573677
1703490713.464422,1703490713.464555,61.000000,0.000000,4277.436035,4247.948730,4259.871582,4269.615234,4230.128418,4162.179688,4182.948730,4263.717773,4241.025879,4196.538574,4386.282227,4431.666504,4267.563965,4350.769043,0.000000,4.000000,89.000000,,,,0.000000,4.000000,4.000000,4.000000,4.000000,4.000000,4.000000,4.000000,4.000000,4.000000,4.000000,4.000000,4.000000,4.000000,4.000000,100.000000,,,,,,,,,,,,,,,,,,,,,,,,,,,,
1703490713.472230,1703490713.472363,62.000000,0.000000,4281.922852,4252.051270,4263.846191,4270.512695,4237.436035,4174.615234,4189.871582,4273.589844,4251.025879,4196.922852,4394.102539,4437.051270,4280.256348,4360.769043,0.000000,4.000000,89.000000,,,,0.000000,4.000000,4.000000,4.000000,4.000000,4.000000,4.000000,4.000000,4.000000,4.000000,4.000000,4.000000,4.000000,4.000000,4.000000,100.000000,,,,,,,,,,,,,,,,,,,,,,,,,,,,
1703490713.480038,1703490713.480271,63.000000,0.000000,4286.538574,4246.666504,4274.487305,4276.794922,4235.641113,4181.025879,4189.102539,4277.179688,4253.333496,4198.333496,4394.743652,4438.974121,4285.897461,4361.922852,0.000000,4.000000,89.000000,,,,0.000000,4.000000,4.000000,4.000000,4.000000,4.000000,4.000000,4.000000,4.000000,4.000000,4.000000,4.000000,4.000000,4.000000,4.000000,100.000000,,,,,,,,,,,,,,,,,,,,,,,,,,,,
1703490713.487846,1703490713.488079,64.000000,0.000000,4283.333496,4242.563965,4270.641113,4276.922852,4227.307617,4178.717773,4185.512695,4267.820313,4241.410156,4186.282227,4379.487305,4430.000000,4265.641113,4352.692383,4956.000000,4.000000,89.000000,,,,0.000000,4.000000,4.000000,4.000000,4.000000,4.000000,4.000000,4.000000,4.000000,4.000000,4.000000,4.000000,4.000000,4.000000,4.000000,100.000000,,,,,,,,,,,,,,,,,16.000000,0.000000,0.694742,-0.074463,-0.690979,-0.185303,0.977170,0.147479,0.032230,-19.900702,-34.335625,64.482971
1703490713.495654,1703490713.495787,65.000000,0.000000,4281.922852,4245.897461,4265.641113,4270.384766,4231.025879,4179.615234,4186.794922,4262.563965,4238.461426,4177.820313,4373.717773,4425.256348,4256.922852,4348.589844,5686.000000,4.000000,89.000000,,,,0.000000,4.000000,4.000000,4.000000,4.000000,4.000000,4.000000,4.000000,4.000000,4.000000,4.000000,4.000000,4.000000,4.000000,4.000000,100.000000,,,,,,,,,,,,,,,,,,,,,,,,,,,,
1703490713.503462,1703490713.503595,66.000000,0.000000,4288.717773,4248.974121,4271.666504,4269.358887,4240.641113,4182.820313,4188.077148,4265.256348,4244.102539,4189.743652,4383.974121,4429.615234,4270.384766,4347.948730,5344.000000,4.000000,89.000000,,,,0.000000,4.000000,4.000000,4.000000,4.000000,4.000000,4.000000,4.000000,4.000000,4.000000,4.000000,4.000000,4.000000,4.000000,4.000000,100.000000,,,,,,,,,,,,,,,,,,,,,,,,,,,,
1703490713.511270,1703490713.511303,67.000000,0.000000,4285.769043,4247.563965,4269.487305,4270.384766,4238.846191,4174.871582,4183.717773,4264.230957,4239.871582,4195.512695,4384.487305,4429.102539,4273.717773,4342.436035,5517.000000,4.000000,89.000000,,,,0.000000,4.000000,4.000000,4.000000,4.000000,4.000000,4.000000,4.000000,4.000000,4.000000,4.000000,4.000000,4.000000,4.000000,4.000000,100.000000,,,,,,,,,,,,,,,,,,,,,,,,,,,,
1703490713.519078,1703490713.519211,68.000000,0.000000,4277.820313,4249.871582,4256.794922,4270.128418,4234.615234,4165.128418,4176.922852,4258.461426,4236.282227,4192.436035,4380.256348,4424.487305,4276.025879,4345.641113,5327.000000,4.000000,89.000000,,,,0.000000,4.000000,4.000000,4.000000,4.000000,4.000000,4.000000,4.000000,4.000000,4.000000,4.000000,4.000000,4.000000,4.000000,4.000000,100.000000,,,,,,,,,,,,,,,,,17.000000,0.000000,0.694876,-0.074646,-0.690857,-0.185181,0.979612,0.146502,0.030765,-19.627298,-34.352062,64.501343
1703490713.526887,1703490713.527019,69.000000,0.000000,4273.461426,4253.589844,4255.769043,4271.666504,4233.333496,4163.589844,4172.051270,4253.846191,4237.051270,4198.461426,4389.743652,4424.358887,4288.205078,4352.820313,5141.000000,4.000000,89.000000,,,,0.000000,4.000000,4.000000,4.000000,4.000000,4.000000,4.000000,4.000000,4.000000,4.000000,4.000000,4.000000,4.000000,4.000000,4.000000,100.000000,,,,,,,,,,,,,,,,,,,,,,,,,,,,
1703490713.534695,1703490713.534827,70.000000,0.000000,4271.538574,4248.717773,4261.794922,4267.692383,4230.769043,4160.000000,4168.205078,4249.102539,4232.563965,4198.717773,4399.743652,4427.051270,4286.922852,4346.282227,3522.000000,4.000000,89.000000,,,,0.000000,4.000000,4.000000,4.000000,4.000000,4.000000,4.000000,4.000000,4.000000,4.000000,4.000000,4.000000,4.000000,4.000000,4.000000,100.000000,,,,,,,,,,,,,,,,,,,,,,,,,,,,
1703490713.542503,1703490713.542535,71.000000,0.000000,4276.794922,4247.051270,4262.563965,4264.615234,4228.846191,4155.641113,4164.743652,4247.692383,4230.512695,4193.205078,4401.794922,4425.641113,4283.333496,4347.563965,2820.000000,4.000000,89.000000,,,,0.000000,4.000000,4.000000,4.000000,4.000000,4.000000,4.000000,4.000000,4.000000,4.000000,4.000000,4.000000,4.000000,4.000000,4.000000,100.000000,1.000000,25.000000,4.000000,1.000000,3.000000,3.000000,1.000000,1.000000,1.000000,3.000000,3.000000,1.000000,4.000000,4.000000,4.000000,4.000000,,,,,,,,,,,,
1703490713.550311,1703490713.550343,72.000000,0.000000,4275.769043,4250.256348,4263.333496,4271.282227,4227.563965,4158.205078,4165.897461,4255.128418,4235.641113,4195.384766,4402.051270,4426.410156,4285.256348,4356.922852,4281.000000,4.000000,89.000000,,,,0.000000,4.000000,4.000000,4.000000,4.000000,4.000000,4.000000,4.000000,4.000000,4.000000,4.000000,4.000000,4.000000,4.000000,4.000000,100.000000,,,,,,,,,,,,,,,,,18.000000,0.000000,0.694920,-0.074951,-0.690796,-0.185120,0.982053,0.140642,0.052252,-19.564569,-34.233524,64.651207
1703490713.558119,1703490713.558051,73.000000,0.000000,4263.589844,4244.615234,4260.512695,4267.948730,4224.102539,4162.692383,4174.102539,4263.846191,4241.410156,4189.615234,4396.282227,4428.461426,4269.871582,4347.563965,5440.000000,4.000000,89.000000,,,,0.000000,4.000000,4.000000,4.000000,4.000000,4.000000,4.000000,4.000000,4.000000,4.000000,4.000000,4.000000,4.000000,4.000000,4.000000,100.000000,,,,,,,,,,,,,,,,,,,,,,,,,,,,
1703490713.565927,1703490713.565859,74.000000,0.000000,4256.410156,4234.743652,4253.205078,4255.769043,4219.743652,4166.538574,4183.333496,4266.153809,4245.256348,4177.948730,4384.102539,4422.820313,4250.384766,4329.102539,6023.000000,4.000000,89.000000,,,,0.000000,4.000000,4.000000,4.000000,4.000000,4.000000,4.000000,4.000000,4.000000,4.000000,4.000000,4.000000,4.000000,4.000000,4.000000,100.000000,,,,,,,,,,,,,,,,,,,,,,,,,,,,
1703490713.573735,1703490713.573567,75.000000,0.000000,4255.512695,4237.820313,4250.128418,4256.922852,4220.000000,4173.974121,4186.666504,4266.153809,4244.871582,4181.922852,4381.538574,4421.410156,4254.358887,4327.436035,5666.000000,4.000000,89.000000,,,,0.000000,4.000000,4.000000,4.000000,4.000000,4.000000,4.000000,4.000000,4.000000,4.000000,4.000000,4.000000,4.000000,4.000000,4.000000,100.000000,,,,,,,,,,,,,,,,,,,,,,,,,,,,
